time (s)	coil I (A)	last det (V)	int current (uC)
2759.403731	1.049462	0.101642	465.960999
2759.404624	0.660560	0.101642	1055.841309
2759.405555	0.088901	0.101642	1138.608521
2759.406470	0.085331	0.101642	1216.686157
2759.407385	0.085441	0.101642	1294.864380
2759.408283	0.085408	0.101642	1371.560547
2759.409243	0.085459	0.101642	1453.601196
2759.410149	0.085356	0.101642	1530.934082
2759.411038	0.085441	0.101642	1606.890869
2759.411969	0.085367	0.101642	1686.367920
2759.412879	0.085382	0.101642	1764.065674
2759.413775	0.085459	0.101642	1840.636963
2760.433614	1.046177	0.103044	459.271545
2760.434556	0.597953	0.103044	1022.543152
2760.435460	0.088000	0.103044	1102.095581
2760.436357	0.085342	0.103044	1178.647217
2760.437244	0.085316	0.103044	1254.322632
2760.438191	0.085470	0.103044	1335.262695
2760.439089	0.085397	0.103044	1411.948975
2760.439987	0.085422	0.103044	1488.658203
2760.440899	0.085411	0.103044	1566.553345
2760.441819	0.085503	0.103044	1645.216064
2760.442728	0.085349	0.103044	1722.798462
2760.443624	0.085334	0.103044	1799.258179
2761.467336	1.048216	0.100562	460.167023
2761.468233	0.637753	0.100562	1032.231201
2761.469214	0.087502	0.100562	1118.071045
2761.470118	0.085422	0.100562	1195.292847
2761.471011	0.085485	0.100562	1271.630615
2761.471949	0.085510	0.100562	1351.839233
2761.472852	0.085426	0.100562	1428.978882
2761.473776	0.085463	0.100562	1507.946411
2761.474666	0.085455	0.100562	1584.001709
2761.475614	0.085496	0.100562	1665.051514
2761.476509	0.085422	0.100562	1741.504517
2761.477430	0.085448	0.100562	1820.202148
2762.502132	1.095703	0.096953	519.363281
2762.503042	0.581191	0.096953	1048.247559
2762.503969	0.087726	0.096953	1129.569458
2762.504854	0.085305	0.096953	1205.064575
2762.505801	0.085375	0.096953	1285.914429
2762.506705	0.085338	0.096953	1363.060059
2762.507595	0.085375	0.096953	1439.043579
2762.508520	0.085404	0.096953	1518.042358
2762.509434	0.085393	0.096953	1596.091675
2762.510355	0.085320	0.096953	1674.671265
2762.511242	0.085334	0.096953	1750.362915
2762.512191	0.085404	0.096953	1831.411377
2763.528146	1.054757	0.101235	463.038361
2763.529074	0.615546	0.101235	1034.264771
2763.529969	0.088499	0.101235	1113.470947
2763.530896	0.085415	0.101235	1192.650635
2763.531800	0.085455	0.101235	1269.902222
2763.532703	0.085411	0.101235	1347.028687
2763.533591	0.085345	0.101235	1422.815430
2763.534538	0.085455	0.101235	1503.741577
2763.535439	0.085452	0.101235	1580.733521
2763.536338	0.085415	0.101235	1657.521606
2763.537251	0.085455	0.101235	1735.542358
2763.538170	0.085492	0.101235	1814.109497
2764.576210	1.051406	0.098166	464.721558
2764.577108	0.645253	0.098166	1044.158447
2764.578055	0.088121	0.098166	1127.609375
2764.578966	0.085287	0.098166	1205.305664
2764.579855	0.085371	0.098166	1281.200562
2764.580797	0.085375	0.098166	1361.623535
2764.581697	0.085437	0.098166	1438.516846
2764.582598	0.085422	0.098166	1515.482422
2764.583486	0.085400	0.098166	1591.317993
2764.584450	0.085499	0.098166	1673.739258
2764.585358	0.085466	0.098166	1751.342651
2764.586256	0.085378	0.098166	1828.012451
2765.585107	1.051666	0.105481	467.991486
2765.586007	0.652643	0.105481	1055.369995
2765.586891	0.089432	0.105481	1134.428223
2765.587831	0.085375	0.105481	1214.680542
2765.588742	0.085360	0.105481	1292.443604
2765.589641	0.085327	0.105481	1369.152710
2765.590576	0.085386	0.105481	1448.988403
2765.591490	0.085437	0.105481	1527.077881
2765.592394	0.085411	0.105481	1604.289795
2765.593285	0.085382	0.105481	1680.365234
2765.594237	0.085422	0.105481	1761.687256
2765.595140	0.085470	0.105481	1838.866699
2766.647045	1.072178	0.099096	529.655823
2766.647978	0.527516	0.099096	1021.828125
2766.648889	0.087195	0.099096	1101.262573
2766.649783	0.085345	0.099096	1177.561401
2766.650730	0.085481	0.099096	1258.511841
2766.651631	0.085345	0.099096	1335.408081
2766.652529	0.085367	0.099096	1412.067993
2766.653420	0.085378	0.099096	1488.140137
2766.654362	0.085477	0.099096	1568.659790
2766.655276	0.085342	0.099096	1646.662231
2766.656174	0.085386	0.099096	1723.338623
2766.657100	0.085375	0.099096	1802.395630
2767.642582	1.062664	0.108124	476.073273
2767.643481	0.642887	0.108124	1054.028687
2767.644425	0.087975	0.108124	1137.076904
2767.645342	0.085298	0.108124	1215.295044
2767.646244	0.085433	0.108124	1292.355957
2767.647136	0.085367	0.108124	1368.503662
2767.648076	0.085367	0.108124	1448.749023
2767.648983	0.085411	0.108124	1526.217163
2767.649900	0.085404	0.108124	1604.532715
2767.650788	0.085441	0.108124	1680.404053
2767.651733	0.085411	0.108124	1761.117798
2767.652639	0.085382	0.108124	1838.473999
2768.718807	1.056156	0.095604	473.157898
2768.719702	0.645721	0.095604	1051.078613
2768.720664	0.087872	0.095604	1135.611816
2768.721575	0.085298	0.095604	1213.318115
2768.722478	0.085408	0.095604	1290.441284
2768.723379	0.085419	0.095604	1367.403564
2768.724315	0.085419	0.095604	1447.355469
2768.725216	0.085404	0.095604	1524.304565
2768.726109	0.085375	0.095604	1600.544189
2768.727037	0.085411	0.095604	1679.805908
2768.727939	0.085459	0.095604	1756.889893
2768.728841	0.085382	0.095604	1833.904541
2769.702098	1.050150	0.102665	467.316833
2769.702993	0.650193	0.102665	1049.239502
2769.703956	0.087913	0.102665	1133.899292
2769.704866	0.085463	0.102665	1211.670288
2769.705760	0.085437	0.102665	1288.051025
2769.706686	0.085488	0.102665	1367.213135
2769.707594	0.085521	0.102665	1444.866455
2769.708504	0.085444	0.102665	1522.620850
2769.709404	0.085455	0.102665	1599.530640
2769.710341	0.085444	0.102665	1679.592041
2769.711244	0.085507	0.102665	1756.804443
2769.712146	0.085411	0.102665	1833.845459
2770.791905	1.059613	0.097972	480.004669
2770.792808	0.633175	0.097972	1051.761719
2770.793698	0.089055	0.097972	1131.020874
2770.794644	0.085411	0.097972	1211.820068
2770.795549	0.085386	0.097972	1289.094116
2770.796464	0.085481	0.097972	1367.309204
2770.797363	0.085422	0.097972	1444.103882
2770.798317	0.085411	0.097972	1525.586304
2770.799216	0.085466	0.097972	1602.420532
2770.800105	0.085481	0.097972	1678.413086
2770.801035	0.085536	0.097972	1757.961426
2770.801954	0.085386	0.097972	1836.430908
2771.765971	1.050652	0.099668	464.388092
2771.766908	0.633475	0.099668	1057.954468
2771.767830	0.087920	0.099668	1139.016602
2771.768727	0.085400	0.099668	1215.620728
2771.769616	0.085459	0.099668	1291.593750
2771.770546	0.085510	0.099668	1371.118286
2771.771459	0.085466	0.099668	1449.149048
2771.772360	0.085485	0.099668	1526.170654
2771.773247	0.085463	0.099668	1601.976074
2771.774186	0.085562	0.099668	1682.318359
2771.775086	0.085444	0.099668	1759.218262
2771.775976	0.085499	0.099668	1835.312622
2772.858821	1.038237	0.098524	450.594940
2772.859761	0.642968	0.098524	1054.984375
2772.860663	0.088418	0.098524	1134.737427
2772.861579	0.085408	0.098524	1212.970947
2772.862472	0.085415	0.098524	1289.246582
2772.863417	0.085543	0.098524	1370.084961
2772.864310	0.085503	0.098524	1446.439087
2772.865212	0.085426	0.098524	1523.493408
2772.866103	0.085400	0.098524	1599.585205
2772.867048	0.085514	0.098524	1680.395874
2772.867953	0.085499	0.098524	1757.772705
2772.868851	0.085496	0.098524	1834.547729
2773.833690	1.062902	0.098907	474.054108
2773.834616	0.617285	0.098907	1045.660156
2773.835508	0.088553	0.098907	1124.649902
2773.836444	0.085404	0.098907	1204.588135
2773.837342	0.085485	0.098907	1281.353271
2773.838246	0.085422	0.098907	1358.575073
2773.839140	0.085415	0.098907	1434.936157
2773.840076	0.085419	0.098907	1514.888062
2773.840978	0.085499	0.098907	1592.008423
2773.841879	0.085411	0.098907	1668.964111
2773.842766	0.085437	0.098907	1744.746704
2773.843707	0.085441	0.098907	1825.146362
2774.922693	1.051597	0.097134	457.444550
2774.923674	0.540319	0.097134	987.497070
2774.924577	0.087499	0.097134	1066.508423
2774.925470	0.085334	0.097134	1142.712158
2774.926402	0.085345	0.097134	1222.254150
2774.927311	0.085397	0.097134	1299.879761
2774.928205	0.085386	0.097134	1376.214600
2774.929093	0.085393	0.097134	1452.043701
2774.930030	0.085477	0.097134	1532.135986
2774.930939	0.085459	0.097134	1609.818237
2774.931844	0.085400	0.097134	1687.105591
2774.932744	0.085342	0.097134	1763.913208
2775.902413	1.048700	0.096945	462.476685
2775.903395	0.558120	0.096945	1010.550659
2775.904309	0.087451	0.096945	1090.481079
2775.905198	0.085313	0.096945	1166.323853
2775.906131	0.085411	0.096945	1246.012695
2775.907038	0.085470	0.096945	1323.533936
2775.907944	0.085327	0.096945	1400.840332
2775.908848	0.085386	0.096945	1478.029053
2775.909779	0.085477	0.096945	1557.608398
2775.910676	0.085419	0.096945	1634.229004
2775.911574	0.085353	0.096945	1710.875854
2775.912459	0.085415	0.096945	1786.468140
2776.985800	1.057969	0.097481	462.332336
2776.986789	0.523854	0.097481	980.423645
2776.987698	0.087187	0.097481	1059.677124
2776.988595	0.085371	0.097481	1136.255005
2776.989519	0.085393	0.097481	1215.158203
2776.990418	0.085430	0.097481	1291.959473
2776.991319	0.085386	0.097481	1368.891968
2776.992206	0.085386	0.097481	1444.629150
2776.993151	0.085422	0.097481	1525.353271
2776.994054	0.085481	0.097481	1602.542603
2776.994953	0.085378	0.097481	1679.297852
2776.995847	0.085397	0.097481	1755.642578
2777.970150	1.066882	0.095330	487.565186
2777.971073	0.591544	0.095330	1033.560547
2777.971975	0.088099	0.095330	1113.026123
2777.972908	0.085474	0.095330	1192.773071
2777.973815	0.085437	0.095330	1270.264404
2777.974717	0.085470	0.095330	1347.358276
2777.975604	0.085389	0.095330	1423.098633
2777.976545	0.085481	0.095330	1503.536255
2777.977447	0.085356	0.095330	1580.527832
2777.978336	0.085338	0.095330	1656.393433
2777.979267	0.085397	0.095330	1735.897827
2777.980160	0.085503	0.095330	1812.251953
2779.049723	1.081849	0.100244	527.942505
2779.050646	0.550089	0.100244	1035.674805
2779.051547	0.087411	0.100244	1114.432007
2779.052438	0.085305	0.100244	1190.438965
2779.053386	0.085433	0.100244	1271.429810
2779.054288	0.085327	0.100244	1348.394897
2779.055191	0.085411	0.100244	1425.521362
2779.056080	0.085503	0.100244	1501.533447
2779.057017	0.085367	0.100244	1581.522705
2779.057918	0.085364	0.100244	1658.435425
2779.058802	0.085386	0.100244	1733.916382
2779.059745	0.085426	0.100244	1814.473145
2780.039921	1.092546	0.096566	510.219208
2780.040836	0.590295	0.096566	1050.339478
2780.041740	0.087876	0.096566	1129.779297
2780.042632	0.085320	0.096566	1205.884521
2780.043585	0.085367	0.096566	1287.239746
2780.044490	0.085393	0.096566	1364.520508
2780.045383	0.085411	0.096566	1440.792847
2780.046316	0.085408	0.096566	1520.478271
2780.047221	0.085367	0.096566	1597.735840
2780.048121	0.085371	0.096566	1674.569824
2780.049010	0.085375	0.096566	1750.468018
2780.049942	0.085499	0.096566	1830.153320
2781.111756	1.042474	0.101876	459.731201
2781.112719	0.561625	0.101876	1000.575867
2781.113624	0.087722	0.101876	1079.964478
2781.114524	0.085364	0.101876	1156.791870
2781.115413	0.085408	0.101876	1232.719360
2781.116357	0.085455	0.101876	1313.389160
2781.117270	0.085382	0.101876	1391.343018
2781.118167	0.085367	0.101876	1467.917603
2781.119095	0.085426	0.101876	1547.192993
2781.119995	0.085437	0.101876	1624.086304
2781.120893	0.085397	0.101876	1700.772583
2781.121778	0.085404	0.101876	1776.355225
2782.108104	1.039014	0.099878	453.009949
2782.109079	0.586190	0.099878	1024.545410
2782.109982	0.087539	0.099878	1103.593140
2782.110873	0.085411	0.099878	1179.694702
2782.111762	0.085371	0.099878	1255.589600
2782.112705	0.085518	0.099878	1336.232666
2782.113607	0.085426	0.099878	1413.286987
2782.114503	0.085419	0.099878	1489.822144
2782.115425	0.085364	0.099878	1568.527588
2782.116349	0.085514	0.099878	1647.542480
2782.117260	0.085375	0.099878	1725.318848
2782.118154	0.085382	0.099878	1801.650391
2783.175686	1.105276	0.100236	550.427368
2783.176601	0.548324	0.100236	1052.143799
2783.177503	0.087550	0.100236	1131.113892
2783.178394	0.085345	0.100236	1207.156738
2783.179349	0.085474	0.100236	1288.784058
2783.180260	0.085441	0.100236	1366.620483
2783.181159	0.085411	0.100236	1443.405273
2783.182092	0.085408	0.100236	1523.090698
2783.182992	0.085525	0.100236	1600.063110
2783.183898	0.085382	0.100236	1677.419312
2783.184791	0.085444	0.100236	1753.721069
2783.185733	0.085503	0.100236	1834.264893
2784.176107	1.063271	0.098649	500.800842
2784.177071	0.525875	0.098649	1007.744629
2784.177965	0.087209	0.098649	1085.709839
2784.178852	0.085415	0.098649	1161.473022
2784.179790	0.085430	0.098649	1241.606079
2784.180696	0.085353	0.098649	1318.935669
2784.181613	0.085426	0.098649	1397.271362
2784.182510	0.085353	0.098649	1473.832764
2784.183469	0.085452	0.098649	1555.780884
2784.184368	0.085349	0.098649	1632.509766
2784.185260	0.085389	0.098649	1708.677124
2784.186189	0.085459	0.098649	1788.068481
2785.241036	1.044375	0.097743	458.480652
2785.241928	0.660194	0.097743	1047.373779
2785.242890	0.087949	0.097743	1131.980957
2785.243798	0.085309	0.097743	1209.441406
2785.244689	0.085367	0.097743	1285.503784
2785.245613	0.085452	0.097743	1364.461060
2785.246525	0.085455	0.097743	1442.396362
2785.247417	0.085430	0.097743	1518.599609
2785.248307	0.085463	0.097743	1594.661377
2785.249228	0.085499	0.097743	1673.406250
2785.250148	0.085404	0.097743	1751.978027
2785.251047	0.085419	0.097743	1828.769409
2786.242806	1.094604	0.098202	522.126343
2786.243719	0.585491	0.098202	1056.679443
2786.244607	0.088118	0.098202	1134.927979
2786.245537	0.085371	0.098202	1214.323120
2786.246459	0.085415	0.098202	1293.075806
2786.247368	0.085437	0.098202	1370.738037
2786.248256	0.085349	0.098202	1446.528076
2786.249220	0.085492	0.098202	1528.942261
2786.250137	0.085404	0.098202	1607.257812
2786.251040	0.085452	0.098202	1684.420654
2786.251925	0.085455	0.098202	1760.048584
2786.252870	0.085430	0.098202	1840.779663
2787.309335	1.086467	0.099028	562.790039
2787.310241	0.536803	0.099028	1049.133545
2787.311156	0.087129	0.099028	1128.856445
2787.312049	0.085345	0.099028	1205.069946
2787.312994	0.085426	0.099028	1285.797485
2787.313904	0.085353	0.099028	1363.468506
2787.314819	0.085393	0.099028	1441.603149
2787.315708	0.085463	0.099028	1517.579468
2787.316656	0.085430	0.099028	1598.566772
2787.317548	0.085415	0.099028	1674.756958
2787.318440	0.085371	0.099028	1750.907959
2787.319377	0.085437	0.099028	1830.962402
2788.309196	1.044078	0.097324	454.174133
2788.310101	0.660059	0.097324	1051.527100
2788.310989	0.089572	0.097324	1131.066650
2788.311962	0.085360	0.097324	1214.122070
2788.312865	0.085408	0.097324	1291.245239
2788.313764	0.085397	0.097324	1368.016846
2788.314651	0.085371	0.097324	1443.740967
2788.315594	0.085496	0.097324	1524.363281
2788.316507	0.085386	0.097324	1602.320435
2788.317401	0.085356	0.097324	1678.629150
2788.318335	0.085455	0.097324	1758.444458
2788.319241	0.085455	0.097324	1835.866943
2789.377737	1.048513	0.100526	461.345795
2789.378726	0.520488	0.100526	976.108765
2789.379634	0.087206	0.100526	1055.291626
2789.380535	0.085334	0.100526	1132.177979
2789.381465	0.085331	0.100526	1211.535645
2789.382366	0.085433	0.100526	1288.511108
2789.383271	0.085411	0.100526	1365.808350
2789.384160	0.085378	0.100526	1441.709717
2789.385088	0.085411	0.100526	1520.971436
2789.385992	0.085481	0.100526	1598.246216
2789.386895	0.085360	0.100526	1675.326416
2789.387781	0.085331	0.100526	1750.929565
2790.375392	1.067256	0.099777	482.399658
2790.376317	0.596968	0.099777	1034.594849
2790.377213	0.088110	0.099777	1113.541748
2790.378145	0.085364	0.099777	1193.100830
2790.379049	0.085408	0.099777	1270.309448
2790.379955	0.085360	0.099777	1347.645752
2790.380843	0.085382	0.099777	1423.465088
2790.381791	0.085437	0.099777	1504.459351
2790.382689	0.085474	0.099777	1581.214722
2790.383587	0.085426	0.099777	1657.927246
2790.384471	0.085393	0.099777	1733.414673
2790.385409	0.085437	0.099777	1813.554565
2791.448008	1.044767	0.099350	456.563080
2791.448960	0.581832	0.099350	1010.467407
2791.449867	0.087858	0.099350	1090.154297
2791.450762	0.085305	0.099350	1166.502441
2791.451692	0.085422	0.099350	1245.945190
2791.452609	0.085360	0.099350	1324.220459
2791.453523	0.085378	0.099350	1402.256348
2791.454420	0.085404	0.099350	1478.863770
2791.455365	0.085411	0.099350	1559.577515
2791.456269	0.085320	0.099350	1636.706665
2791.457164	0.085386	0.099350	1713.126953
2791.458048	0.085397	0.099350	1788.617676
2792.439772	1.052615	0.101267	471.571442
2792.440683	0.628378	0.101267	1044.023560
2792.441576	0.088744	0.101267	1123.271851
2792.442510	0.085316	0.101267	1202.957153
2792.443438	0.085375	0.101267	1282.184937
2792.444357	0.085338	0.101267	1360.610718
2792.445243	0.085371	0.101267	1436.249512
2792.446195	0.085298	0.101267	1517.453125
2792.447102	0.085356	0.101267	1594.871460
2792.447992	0.085400	0.101267	1670.877808
2792.448930	0.085466	0.101267	1751.045166
2792.449849	0.085393	0.101267	1829.521362
2793.517011	1.046374	0.098722	462.497498
2793.517903	0.647812	0.098722	1040.346191
2793.518844	0.088099	0.098722	1123.247681
2793.519757	0.085294	0.098722	1201.121338
2793.520650	0.085342	0.098722	1277.331543
2793.521578	0.085448	0.098722	1356.627319
2793.522496	0.085360	0.098722	1434.987915
2793.523400	0.085331	0.098722	1512.126953
2793.524286	0.085386	0.098722	1587.778687
2793.525234	0.085419	0.098722	1668.755615
2793.526149	0.085386	0.098722	1746.883545
2793.527051	0.085367	0.098722	1823.885010
2794.503374	1.048477	0.100329	460.281219
2794.504321	0.627576	0.100329	1054.595459
2794.505219	0.088129	0.100329	1133.734985
2794.506111	0.085287	0.100329	1209.810913
2794.506999	0.085455	0.100329	1285.695190
2794.507930	0.085430	0.100329	1365.230225
2794.508832	0.085382	0.100329	1442.244873
2794.509733	0.085400	0.100329	1519.190674
2794.510621	0.085397	0.100329	1595.022949
2794.511578	0.085430	0.100329	1676.779175
2794.512481	0.085408	0.100329	1753.902344
2794.513375	0.085349	0.100329	1830.204468
2795.586261	1.042665	0.097388	456.687164
2795.587153	0.661055	0.097388	1046.347900
2795.588105	0.088209	0.097388	1130.323120
2795.589006	0.085276	0.097388	1207.156738
2795.589896	0.085404	0.097388	1283.166382
2795.590831	0.085353	0.097388	1362.971191
2795.591736	0.085441	0.097388	1440.295044
2795.592647	0.085320	0.097388	1518.021362
2795.593548	0.085345	0.097388	1594.917603
2795.594476	0.085433	0.097388	1674.199707
2795.595387	0.085349	0.097388	1751.952759
2795.596288	0.085411	0.097388	1828.908447
2796.566984	1.047100	0.099781	461.770905
2796.567962	0.550983	0.099781	1000.631958
2796.568869	0.087437	0.099781	1079.936890
2796.569757	0.085334	0.099781	1155.713867
2796.570681	0.085360	0.099781	1234.586670
2796.571601	0.085455	0.099781	1313.205566
2796.572510	0.085356	0.099781	1390.794556
2796.573411	0.085353	0.099781	1467.697388
2796.574347	0.085426	0.099781	1547.656128
2796.575243	0.085342	0.099781	1624.122314
2796.576139	0.085345	0.099781	1700.591797
2796.577030	0.085404	0.099781	1776.686768
2797.652952	1.058247	0.095765	471.978210
2797.653885	0.627887	0.095765	1057.796753
2797.654807	0.088011	0.095765	1138.943359
2797.655709	0.085243	0.095765	1215.832520
2797.656599	0.085360	0.095765	1291.802979
2797.657526	0.085452	0.095765	1371.016602
2797.658428	0.085389	0.095765	1448.037842
2797.659329	0.085422	0.095765	1525.003418
2797.660216	0.085349	0.095765	1600.708130
2797.661162	0.085521	0.095765	1681.611206
2797.662063	0.085411	0.095765	1758.566895
2797.662956	0.085349	0.095765	1834.783691
2798.632656	1.051527	0.100224	464.774933
2798.633550	0.647011	0.100224	1043.202271
2798.634500	0.087971	0.100224	1126.774902
2798.635420	0.085378	0.100224	1205.322998
2798.636316	0.085437	0.100224	1281.874512
2798.637239	0.085441	0.100224	1360.736206
2798.638149	0.085411	0.100224	1438.460571
2798.639059	0.085393	0.100224	1516.168213
2798.639958	0.085415	0.100224	1592.956299
2798.640905	0.085444	0.100224	1673.872070
2798.641808	0.085422	0.100224	1751.008423
2798.642704	0.085422	0.100224	1827.546875
2799.717634	1.077572	0.093203	534.475708
2799.718558	0.550276	0.093203	1042.930664
2799.719451	0.087594	0.093203	1121.152100
2799.720336	0.085375	0.093203	1196.708740
2799.721272	0.085433	0.093203	1276.674316
2799.722189	0.085382	0.093203	1354.969727
2799.723087	0.085367	0.093203	1431.629639
2799.724022	0.085415	0.093203	1511.492676
2799.724928	0.085345	0.093203	1588.815674
2799.725829	0.085397	0.093203	1665.758179
2799.726717	0.085415	0.093203	1741.606689
2799.727666	0.085477	0.093203	1822.724609
2800.703181	1.048268	0.102363	463.334381
2800.704151	0.554084	0.102363	1000.796387
2800.705061	0.087437	0.102363	1080.363647
2800.705960	0.085294	0.102363	1157.043091
2800.706866	0.085415	0.102363	1234.429077
2800.707790	0.085503	0.102363	1313.433838
2800.708707	0.085404	0.102363	1391.749390
2800.709598	0.085382	0.102363	1467.824829
2800.710538	0.085474	0.102363	1548.170044
2800.711441	0.085397	0.102363	1625.283325
2800.712343	0.085382	0.102363	1702.297974
2800.713231	0.085327	0.102363	1778.068481
2801.778642	1.056855	0.091785	472.414368
2801.779543	0.646168	0.091785	1054.611938
2801.780492	0.088480	0.091785	1138.579712
2801.781392	0.085430	0.091785	1215.466431
2801.782290	0.085411	0.091785	1292.165894
2801.783172	0.085393	0.091785	1367.482544
2801.784100	0.085466	0.091785	1446.795288
2801.785008	0.085477	0.091785	1524.408691
2801.785905	0.085393	0.091785	1601.006226
2801.786833	0.085320	0.091785	1680.182983
2801.787742	0.085485	0.091785	1757.888550
2801.788653	0.085459	0.091785	1835.741699
2802.776836	1.077737	0.101457	535.635193
2802.777756	0.540908	0.101457	1033.270752
2802.778655	0.087605	0.101457	1112.027588
2802.779543	0.085342	0.101457	1187.811157
2802.780495	0.085551	0.101457	1269.255249
2802.781388	0.085481	0.101457	1345.589722
2802.782287	0.085422	0.101457	1422.384399
2802.783175	0.085378	0.101457	1498.200439
2802.784135	0.085444	0.101457	1580.227051
2802.785043	0.085397	0.101457	1657.767334
2802.785945	0.085408	0.101457	1734.805054
2802.786875	0.085411	0.101457	1814.237671
2803.837912	1.062220	0.095056	469.501434
2803.838827	0.622826	0.095056	1039.387207
2803.839721	0.088762	0.095056	1118.740601
2803.840658	0.085430	0.095056	1198.788208
2803.841567	0.085488	0.095056	1276.497070
2803.842464	0.085426	0.095056	1353.124268
2803.843350	0.085444	0.095056	1428.828003
2803.844286	0.085510	0.095056	1508.865601
2803.845175	0.085496	0.095056	1584.871216
2803.846100	0.085499	0.095056	1663.958008
2803.846990	0.085470	0.095056	1740.026245
2803.847918	0.085507	0.095056	1819.376343
2804.850892	1.048422	0.102915	461.305511
2804.851790	0.664460	0.102915	1057.990967
2804.852680	0.089645	0.102915	1137.774780
2804.853644	0.085459	0.102915	1220.157227
2804.854538	0.085320	0.102915	1296.433105
2804.855436	0.085433	0.102915	1373.152222
2804.856320	0.085455	0.102915	1448.694702
2804.857257	0.085529	0.102915	1528.834961
2804.858165	0.085404	0.102915	1606.381836
2804.859059	0.085503	0.102915	1682.821411
2804.859990	0.085547	0.102915	1762.465576
2804.860894	0.085543	0.102915	1839.796631
2805.899212	1.038157	0.098125	452.636353
2805.900191	0.545006	0.098125	986.197327
2805.901085	0.087675	0.098125	1064.578369
2805.901987	0.085433	0.098125	1141.639282
2805.902875	0.085415	0.098125	1217.487793
2805.903813	0.085565	0.098125	1297.747925
2805.904709	0.085433	0.098125	1374.296143
2805.905607	0.085485	0.098125	1451.061279
2805.906542	0.085477	0.098125	1530.982544
2805.907447	0.085433	0.098125	1608.299683
2805.908351	0.085415	0.098125	1685.514893
2805.909239	0.085411	0.098125	1761.360229
2806.923524	1.070852	0.101239	525.788330
2806.924450	0.556025	0.101239	1040.667847
2806.925348	0.087660	0.101239	1119.386475
2806.926238	0.085419	0.101239	1195.409180
2806.927181	0.085576	0.101239	1276.107544
2806.928091	0.085488	0.101239	1353.901855
2806.928992	0.085529	0.101239	1430.963135
2806.929880	0.085507	0.101239	1506.892944
2806.930833	0.085547	0.101239	1588.419067
2806.931737	0.085411	0.101239	1665.630981
2806.932627	0.085470	0.101239	1741.699219
2806.933559	0.085558	0.101239	1821.439209
2807.962573	1.048107	0.097155	460.118835
2807.963526	0.583374	0.097155	1016.074280
2807.964437	0.087931	0.097155	1096.179321
2807.965336	0.085426	0.097155	1172.977295
2807.966273	0.085466	0.097155	1253.059204
2807.967188	0.085455	0.097155	1331.250854
2807.968094	0.085404	0.097155	1408.626953
2807.968992	0.085477	0.097155	1485.385498
2807.969933	0.085386	0.097155	1565.733521
2807.970838	0.085448	0.097155	1643.063965
2807.971738	0.085426	0.097155	1719.947388
2807.972623	0.085466	0.097155	1795.585083
2808.993528	1.098431	0.097408	531.640747
2808.994462	0.542509	0.097408	1038.343750
2808.995368	0.087488	0.097408	1117.607666
2808.996256	0.085393	0.097408	1193.436768
2808.997207	0.085485	0.097408	1274.732666
2808.998105	0.085397	0.097408	1351.418945
2808.998994	0.085437	0.097408	1427.372437
2808.999931	0.085422	0.097408	1507.413208
2809.000846	0.085408	0.097408	1585.561279
2809.001756	0.085323	0.097408	1663.205688
2809.002642	0.085422	0.097408	1738.889893
2809.003572	0.085496	0.097408	1818.400757
2810.025963	1.060682	0.097775	499.581360
2810.026908	0.541161	0.097775	1010.978394
2810.027817	0.087396	0.097775	1090.421631
2810.028710	0.085360	0.097775	1166.648193
2810.029644	0.085499	0.097775	1246.504517
2810.030544	0.085437	0.097775	1323.397827
2810.031438	0.085426	0.097775	1399.768677
2810.032329	0.085375	0.097775	1475.837524
2810.033264	0.085499	0.097775	1555.779297
2810.034173	0.085448	0.097775	1633.451538
2810.035071	0.085411	0.097775	1710.151001
2810.035996	0.085470	0.097775	1789.210693
2811.060428	1.047737	0.097090	461.004242
2811.061334	0.652009	0.097090	1051.724609
2811.062221	0.089432	0.097090	1131.051147
2811.063174	0.085415	0.097090	1212.451660
2811.064082	0.085393	0.097090	1289.988525
2811.064971	0.085499	0.097090	1365.997314
2811.065890	0.085459	0.097090	1444.534180
2811.066806	0.085503	0.097090	1522.854858
2811.067711	0.085433	0.097090	1600.171997
2811.068605	0.085459	0.097090	1676.572388
2811.069530	0.085532	0.097090	1755.689697
2811.070440	0.085499	0.097090	1833.494019
2812.090113	1.065150	0.098568	524.053894
2812.091037	0.549613	0.098568	1031.896240
2812.091956	0.087158	0.098568	1111.994629
2812.092853	0.085492	0.098568	1188.680908
2812.093804	0.085474	0.098568	1269.966309
2812.094709	0.085382	0.098568	1347.237061
2812.095633	0.085481	0.098568	1426.221436
2812.096522	0.085496	0.098568	1502.227051
2812.097463	0.085415	0.098568	1582.602661
2812.098353	0.085485	0.098568	1658.683960
2812.099241	0.085481	0.098568	1734.591064
2812.100175	0.085437	0.098568	1814.389282
2813.126621	1.074756	0.094726	487.939117
2813.127549	0.596060	0.094726	1041.082397
2813.128449	0.088261	0.094726	1120.516846
2813.129389	0.085452	0.094726	1200.841431
2813.130296	0.085551	0.094726	1278.435791
2813.131199	0.085459	0.094726	1355.605225
2813.132085	0.085543	0.094726	1431.396484
2813.133034	0.085521	0.094726	1512.556152
2813.133945	0.085532	0.094726	1590.476074
2813.134839	0.085466	0.094726	1666.882935
2813.135768	0.085529	0.094726	1746.338989
2813.136678	0.085573	0.094726	1824.209961
2814.156761	1.067197	0.097469	483.440338
2814.157666	0.629191	0.097469	1052.857910
2814.158553	0.089015	0.097469	1131.814087
2814.159526	0.085455	0.097469	1214.962158
2814.160427	0.085441	0.097469	1291.944214
2814.161316	0.085463	0.097469	1367.920532
2814.162248	0.085430	0.097469	1447.541016
2814.163159	0.085481	0.097469	1525.414185
2814.164066	0.085455	0.097469	1602.922119
2814.164963	0.085521	0.097469	1679.634644
2814.165889	0.085455	0.097469	1758.766235
2814.166794	0.085551	0.097469	1836.189453
2815.192793	1.057083	0.093585	468.287567
2815.193728	0.618794	0.093585	1046.859863
2815.194616	0.088568	0.093585	1125.508301
2815.195547	0.085441	0.093585	1205.053589
2815.196456	0.085529	0.093585	1282.799072
2815.197357	0.085485	0.093585	1359.820679
2815.198276	0.085430	0.093585	1438.330566
2815.199168	0.085437	0.093585	1514.540405
2815.200078	0.085481	0.093585	1592.328125
2815.201016	0.085455	0.093585	1672.485229
2815.201935	0.085463	0.093585	1751.025391
2815.202825	0.085474	0.093585	1827.096924
2816.224709	1.042156	0.098758	452.295593
2816.225673	0.585487	0.098758	1016.705139
2816.226590	0.087458	0.098758	1096.904541
2816.227489	0.085349	0.098758	1173.633423
2816.228375	0.085393	0.098758	1249.291748
2816.229317	0.085470	0.098758	1329.804443
2816.230220	0.085389	0.098758	1406.911133
2816.231108	0.085419	0.098758	1482.762939
2816.232031	0.085507	0.098758	1561.685547
2816.232950	0.085441	0.098758	1640.205566
2816.233859	0.085382	0.098758	1717.817871
2816.234754	0.085411	0.098758	1794.261108
2817.258434	1.054523	0.093416	458.717346
2817.259421	0.533346	0.093416	985.129761
2817.260336	0.087264	0.093416	1064.976685
2817.261240	0.085397	0.093416	1142.175293
2817.262166	0.085448	0.093416	1221.300171
2817.263068	0.085477	0.093416	1298.400635
2817.263966	0.085419	0.093416	1375.106689
2817.264853	0.085448	0.093416	1450.899048
2817.265815	0.085510	0.093416	1533.159912
2817.266718	0.085404	0.093416	1610.279785
2817.267614	0.085452	0.093416	1686.844482
2817.268519	0.085448	0.093416	1764.174927
2818.292172	1.058130	0.099846	468.751495
2818.293151	0.545746	0.099846	1003.036621
2818.294048	0.087466	0.099846	1081.493408
2818.294932	0.085349	0.099846	1156.942017
2818.295878	0.085415	0.099846	1237.744629
2818.296795	0.085378	0.099846	1316.036621
2818.297695	0.085426	0.099846	1392.920044
2818.298587	0.085404	0.099846	1469.100464
2818.299538	0.085455	0.099846	1550.368530
2818.300439	0.085375	0.099846	1627.291138
2818.301331	0.085389	0.099846	1703.458496
2818.302246	0.085378	0.099846	1781.579712
2819.324100	1.034788	0.093807	445.993439
2819.325023	0.657169	0.093807	1052.560547
2819.325945	0.088217	0.093807	1133.896240
2819.326856	0.085294	0.093807	1211.599243
2819.327753	0.085382	0.093807	1288.187012
2819.328698	0.085437	0.093807	1368.925049
2819.329600	0.085382	0.093807	1445.939697
2819.330497	0.085283	0.093807	1522.438721
2819.331380	0.085386	0.093807	1597.834351
2819.332319	0.085397	0.093807	1678.021851
2819.333228	0.085364	0.093807	1755.617554
2819.334123	0.085393	0.093807	1832.044312
2820.357576	1.043566	0.100039	452.907532
2820.358535	0.598319	0.100039	1026.695557
2820.359446	0.087539	0.100039	1106.443604
2820.360352	0.085302	0.100039	1183.726807
2820.361241	0.085367	0.100039	1259.618408
2820.362200	0.085411	0.100039	1341.527954
2820.363106	0.085316	0.100039	1418.824463
2820.363996	0.085349	0.100039	1494.785156
2820.364907	0.085382	0.100039	1572.568237
2820.365836	0.085400	0.100039	1651.905151
2820.366744	0.085345	0.100039	1729.398804
2820.367641	0.085408	0.100039	1806.009521
2821.389782	1.061613	0.094125	477.725677
2821.390684	0.640162	0.094125	1055.152100
2821.391623	0.089059	0.094125	1138.778320
2821.392527	0.085448	0.094125	1216.023315
2821.393422	0.085386	0.094125	1292.443604
2821.394317	0.085411	0.094125	1368.886841
2821.395255	0.085496	0.094125	1449.081665
2821.396159	0.085426	0.094125	1526.306763
2821.397063	0.085448	0.094125	1603.551758
2821.397954	0.085459	0.094125	1679.695679
2821.398906	0.085521	0.094125	1761.111938
2821.399807	0.085408	0.094125	1838.064331
2822.423253	1.061550	0.100115	476.636078
2822.424151	0.644062	0.100115	1055.004150
2822.425089	0.088638	0.100115	1138.146362
2822.425988	0.085338	0.100115	1214.865356
2822.426885	0.085389	0.100115	1291.459717
2822.427770	0.085371	0.100115	1367.013184
2822.428709	0.085514	0.100115	1447.310791
2822.429615	0.085430	0.100115	1524.710083
2822.430513	0.085419	0.100115	1601.416016
2822.431435	0.085444	0.100115	1680.195679
2822.432348	0.085499	0.100115	1758.256470
2822.433253	0.085334	0.100115	1835.484131
2823.457737	1.050308	0.095326	461.085052
2823.458712	0.540352	0.095326	987.927856
2823.459619	0.087444	0.095326	1067.239380
2823.460516	0.085323	0.095326	1143.774536
2823.461453	0.085360	0.095326	1223.756958
2823.462353	0.085503	0.095326	1300.709595
2823.463244	0.085419	0.095326	1376.817627
2823.464129	0.085375	0.095326	1452.374268
2823.465064	0.085481	0.095326	1532.298950
2823.465964	0.085382	0.095326	1609.142822
2823.466861	0.085393	0.095326	1685.740356
2823.467750	0.085411	0.095326	1761.671021
2824.489942	1.051256	0.100321	466.757690
2824.490838	0.651874	0.100321	1050.836670
2824.491802	0.087924	0.100321	1135.594971
2824.492716	0.085444	0.100321	1213.691040
2824.493611	0.085404	0.100321	1290.127686
2824.494527	0.085437	0.100321	1368.387939
2824.495451	0.085477	0.100321	1447.368896
2824.496361	0.085404	0.100321	1525.086548
2824.497259	0.085411	0.100321	1601.786011
2824.498181	0.085518	0.100321	1680.633179
2824.499090	0.085459	0.100321	1758.315430
2824.499998	0.085430	0.100321	1835.885620
2825.525709	1.051879	0.095173	464.930328
2825.526619	0.638269	0.095173	1045.755127
2825.527505	0.089220	0.095173	1124.804077
2825.528459	0.085422	0.095173	1206.296997
2825.529359	0.085474	0.095173	1283.223267
2825.530255	0.085441	0.095173	1359.778076
2825.531194	0.085452	0.095173	1440.017212
2825.532098	0.085507	0.095173	1517.315186
2825.532986	0.085459	0.095173	1593.202759
2825.533876	0.085426	0.095173	1669.231934
2825.534809	0.085455	0.095173	1748.961792
2825.535711	0.085536	0.095173	1826.115112
2826.556119	1.064692	0.100325	479.111572
2826.557028	0.624998	0.100325	1047.234375
2826.557962	0.088440	0.100325	1129.837280
2826.558861	0.085364	0.100325	1206.579346
2826.559760	0.085408	0.100325	1283.360840
2826.560646	0.085375	0.100325	1359.002930
2826.561592	0.085463	0.100325	1439.850586
2826.562492	0.085452	0.100325	1516.757080
2826.563384	0.085320	0.100325	1592.862305
2826.564290	0.085386	0.100325	1670.221802
2826.565227	0.085459	0.100325	1750.296875
2826.566134	0.085371	0.100325	1827.728516
2827.593682	1.047682	0.096627	464.123108
2827.594639	0.568564	0.096627	1008.239258
2827.595554	0.087565	0.096627	1088.360962
2827.596455	0.085477	0.096627	1165.375977
2827.597344	0.085430	0.096627	1241.322998
2827.598295	0.085507	0.096627	1322.639771
2827.599205	0.085455	0.096627	1400.404053
2827.600095	0.085422	0.096627	1476.429932
2827.601043	0.085430	0.096627	1557.417236
2827.601941	0.085492	0.096627	1634.188965
2827.602841	0.085452	0.096627	1711.095459
2827.603737	0.085437	0.096627	1787.646973
2828.623061	1.058643	0.099813	474.271851
2828.623957	0.647076	0.099813	1054.052246
2828.624920	0.088370	0.099813	1139.152954
2828.625835	0.085360	0.099813	1217.257446
2828.626729	0.085404	0.099813	1293.608643
2828.627617	0.085353	0.099813	1369.401855
2828.628563	0.085485	0.099813	1450.270264
2828.629457	0.085367	0.099813	1526.588745
2828.630342	0.085433	0.099813	1602.197266
2828.631266	0.085444	0.099813	1681.147827
2828.632175	0.085430	0.099813	1758.803467
2828.633081	0.085345	0.099813	1836.126465
2829.660112	1.050022	0.097066	459.909637
2829.661076	0.568535	0.097066	1007.977539
2829.661974	0.087806	0.097066	1086.827637
2829.662874	0.085356	0.097066	1163.648437
2829.663762	0.085408	0.097066	1239.490479
2829.664695	0.085415	0.097066	1319.182739
2829.665603	0.085389	0.097066	1396.716309
2829.666501	0.085466	0.097066	1473.465088
2829.667436	0.085448	0.097066	1553.359009
2829.668338	0.085532	0.097066	1630.509033
2829.669251	0.085463	0.097066	1708.536377
2829.670142	0.085411	0.097066	1784.637939
2830.690252	1.044203	0.097751	457.360840
2830.691227	0.564437	0.097751	1007.687134
2830.692137	0.087623	0.097751	1087.424316
2830.693027	0.085411	0.097751	1163.440430
2830.693956	0.085382	0.097751	1242.760376
2830.694871	0.085481	0.097751	1320.975464
2830.695775	0.085386	0.097751	1398.164185
2830.696670	0.085378	0.097751	1474.577881
2830.697599	0.085411	0.097751	1553.925049
2830.698493	0.085448	0.097751	1630.315552
2830.699392	0.085430	0.097751	1707.116821
2830.700279	0.085433	0.097751	1782.896240
2831.724504	1.059430	0.098967	470.386932
2831.725426	0.619856	0.098967	1041.894165
2831.726325	0.088513	0.098967	1121.467529
2831.727261	0.085397	0.098967	1201.398926
2831.728172	0.085455	0.098967	1279.248779
2831.729077	0.085400	0.098967	1356.536133
2831.729966	0.085463	0.098967	1432.512451
2831.730914	0.085529	0.098967	1513.593506
2831.731816	0.085477	0.098967	1590.693970
2831.732715	0.085459	0.098967	1667.521606
2831.733600	0.085441	0.098967	1743.136597
2831.734520	0.085503	0.098967	1821.799316
2832.759753	1.047290	0.097054	457.665710
2832.760644	0.649603	0.097054	1036.462280
2832.761633	0.087426	0.097054	1122.926147
2832.762539	0.085313	0.097054	1200.219238
2832.763431	0.085426	0.097054	1276.419189
2832.764360	0.085492	0.097054	1355.841187
2832.765267	0.085466	0.097054	1433.359131
2832.766163	0.085400	0.097054	1509.877930
2832.767050	0.085408	0.097054	1585.634521
2832.767989	0.085437	0.097054	1665.859863
2832.768901	0.085419	0.097054	1743.761719
2832.769805	0.085364	0.097054	1820.930542
2833.785798	1.043936	0.100397	457.243774
2833.786688	0.659161	0.100397	1043.897461
2833.787658	0.087902	0.100397	1129.161987
2833.788570	0.085291	0.100397	1206.946899
2833.789464	0.085353	0.100397	1283.252319
2833.790391	0.085430	0.100397	1362.445679
2833.791291	0.085397	0.100397	1439.302734
2833.792197	0.085393	0.100397	1516.668823
2833.793085	0.085397	0.100397	1592.501099
2833.794023	0.085433	0.100397	1672.637573
2833.794927	0.085345	0.100397	1749.789917
2833.795831	0.085404	0.100397	1826.995117
2834.831325	1.070856	0.094983	481.885071
2834.832228	0.634574	0.094983	1054.905396
2834.833115	0.089066	0.094983	1133.907104
2834.834074	0.085430	0.094983	1215.834229
2834.834972	0.085364	0.094983	1292.490845
2834.835864	0.085408	0.094983	1368.674561
2834.836769	0.085386	0.094983	1445.948608
2834.837702	0.085433	0.094983	1525.657959
2834.838614	0.085309	0.094983	1603.459595
2834.839511	0.085386	0.094983	1680.050659
2834.840437	0.085411	0.094983	1759.141602
2834.841334	0.085419	0.094983	1835.762207
2835.847166	1.108978	0.101372	536.745483
2835.848091	0.544270	0.101372	1040.195190
2835.848991	0.087491	0.101372	1118.937500
2835.849881	0.085280	0.101372	1194.836304
2835.850836	0.085404	0.101372	1276.397217
2835.851744	0.085331	0.101372	1353.877563
2835.852641	0.085331	0.101372	1430.419312
2835.853566	0.085411	0.101372	1509.424805
2835.854467	0.085433	0.101372	1586.400269
2835.855359	0.085386	0.101372	1662.564331
2835.856246	0.085364	0.101372	1738.281982
2835.857180	0.085404	0.101372	1818.049316
2836.902869	1.049645	0.092292	466.042236
2836.903847	0.542640	0.092292	996.744507
2836.904743	0.087349	0.092292	1075.008911
2836.905651	0.085320	0.092292	1152.479248
2836.906564	0.085313	0.092292	1230.369507
2836.907486	0.085466	0.092292	1309.169434
2836.908388	0.085265	0.092292	1386.078369
2836.909285	0.085342	0.092292	1462.630005
2836.910228	0.085331	0.092292	1543.096924
2836.911132	0.085400	0.092292	1620.298828
2836.912029	0.085334	0.092292	1696.843872
2836.912914	0.085375	0.092292	1772.400513
2837.906120	1.043156	0.102617	457.945282
2837.907101	0.552579	0.102617	1000.025635
2837.908006	0.087418	0.102617	1079.139160
2837.908905	0.085269	0.102617	1155.795654
2837.909818	0.085294	0.102617	1233.669189
2837.910750	0.085437	0.102617	1313.296509
2837.911655	0.085280	0.102617	1390.474487
2837.912554	0.085320	0.102617	1467.177002
2837.913491	0.085444	0.102617	1547.238403
2837.914393	0.085411	0.102617	1624.279419
2837.915294	0.085294	0.102617	1701.129517
2837.916180	0.085254	0.102617	1776.664429
2838.976783	1.116698	0.090584	566.165894
2838.977696	0.528354	0.090584	1048.553467
2838.978595	0.087305	0.090584	1127.040405
2838.979484	0.085265	0.090584	1202.840942
2838.980427	0.085327	0.090584	1283.304443
2838.981338	0.085360	0.090584	1361.067505
2838.982234	0.085356	0.090584	1437.546875
2838.983158	0.085433	0.090584	1516.487305
2838.984059	0.085386	0.090584	1593.419800
2838.984976	0.085320	0.090584	1671.658081
2838.985868	0.085323	0.090584	1747.766602
2838.986801	0.085463	0.090584	1827.503296
2839.966153	1.047748	0.103217	459.961243
2839.967131	0.564272	0.103217	1011.819702
2839.968045	0.087444	0.103217	1091.743408
2839.968944	0.085247	0.103217	1168.380127
2839.969829	0.085283	0.103217	1243.855713
2839.970762	0.085320	0.103217	1323.459106
2839.971665	0.085214	0.103217	1400.406982
2839.972555	0.085291	0.103217	1476.315552
2839.973489	0.085360	0.103217	1556.041870
2839.974399	0.085356	0.103217	1633.716187
2839.975300	0.085283	0.103217	1710.556396
2839.976192	0.085298	0.103217	1786.642090
2841.047502	1.053040	0.092204	465.443481
2841.048403	0.651368	0.092204	1052.326416
2841.049291	0.089286	0.092204	1131.612305
2841.050252	0.085331	0.092204	1213.615234
2841.051162	0.085265	0.092204	1291.206299
2841.052066	0.085254	0.092204	1368.275879
2841.052996	0.085404	0.092204	1447.701660
2841.053898	0.085371	0.092204	1524.706421
2841.054796	0.085302	0.092204	1601.307129
2841.055687	0.085334	0.092204	1677.340088
2841.056634	0.085334	0.092204	1758.151855
2841.057540	0.085323	0.092204	1835.454956
2842.029572	1.080256	0.102146	536.887390
2842.030496	0.527164	0.102146	1023.987183
2842.031398	0.087246	0.102146	1102.683105
2842.032288	0.085232	0.102146	1178.539551
2842.033243	0.085408	0.102146	1260.103882
2842.034142	0.085360	0.102146	1336.842651
2842.035043	0.085360	0.102146	1413.752075
2842.035930	0.085294	0.102146	1489.407959
2842.036864	0.085375	0.102146	1569.147949
2842.037764	0.085316	0.102146	1645.932495
2842.038662	0.085291	0.102146	1722.523437
2842.039600	0.085360	0.102146	1802.591187
2843.115726	1.055837	0.093316	468.791809
2843.116706	0.540593	0.093316	998.573181
2843.117617	0.087195	0.093316	1078.007690
2843.118507	0.085151	0.093316	1153.792358
2843.119432	0.085291	0.093316	1232.686035
2843.120337	0.085349	0.093316	1309.927002
2843.121242	0.085258	0.093316	1387.085083
2843.122140	0.085294	0.093316	1463.679199
2843.123072	0.085334	0.093316	1543.210937
2843.123983	0.085221	0.093316	1620.847168
2843.124885	0.085291	0.093316	1697.779175
2843.125770	0.085236	0.093316	1773.212646
2844.094682	1.052988	0.099555	466.473755
2844.095579	0.648333	0.099555	1048.028076
2844.096528	0.087740	0.099555	1131.293823
2844.097443	0.085331	0.099555	1209.371460
2844.098343	0.085382	0.099555	1286.215332
2844.099265	0.085430	0.099555	1364.981445
2844.100185	0.085444	0.099555	1443.590210
2844.101093	0.085393	0.099555	1521.127075
2844.101992	0.085334	0.099555	1597.842773
2844.102932	0.085400	0.099555	1678.119141
2844.103841	0.085298	0.099555	1755.654907
2844.104741	0.085356	0.099555	1832.475708
2845.183182	1.066978	0.094307	471.604065
2845.184178	0.510791	0.094307	980.351929
2845.185085	0.086887	0.094307	1059.158691
2845.185975	0.085276	0.094307	1135.054199
2845.186922	0.085345	0.094307	1215.876343
2845.187841	0.085250	0.094307	1294.221313
2845.188756	0.085331	0.094307	1372.298950
2845.189645	0.085375	0.094307	1448.197144
2845.190591	0.085334	0.094307	1528.923584
2845.191491	0.085291	0.094307	1605.685059
2845.192375	0.085305	0.094307	1681.094849
2845.193292	0.085294	0.094307	1759.309570
2846.159841	1.064524	0.098073	475.842194
2846.160771	0.606910	0.098073	1040.268921
2846.161666	0.088367	0.098073	1119.357056
2846.162606	0.085276	0.098073	1199.516357
2846.163506	0.085386	0.098073	1276.363525
2846.164400	0.085287	0.098073	1352.609985
2846.165284	0.085389	0.098073	1428.094238
2846.166223	0.085415	0.098073	1508.298950
2846.167132	0.085349	0.098073	1585.881348
2846.168034	0.085364	0.098073	1662.879517
2846.168927	0.085397	0.098073	1739.138794
2846.169864	0.085393	0.098073	1819.152100
2847.249675	1.109564	0.095016	560.329895
2847.250606	0.521499	0.095016	1045.845459
2847.251504	0.087217	0.095016	1124.166138
2847.252390	0.085291	0.095016	1199.733521
2847.253342	0.085426	0.095016	1281.059082
2847.254238	0.085294	0.095016	1357.482666
2847.255125	0.085302	0.095016	1433.145142
2847.256048	0.085302	0.095016	1511.878418
2847.256971	0.085386	0.095016	1590.689453
2847.257875	0.085323	0.095016	1667.821899
2847.258766	0.085353	0.095016	1743.871216
2847.259695	0.085371	0.095016	1823.180908
2848.226526	1.064777	0.096655	478.084717
2848.227431	0.634365	0.096655	1052.185303
2848.228321	0.089022	0.096655	1131.415039
2848.229282	0.085386	0.096655	1213.470703
2848.230178	0.085419	0.096655	1290.005859
2848.231080	0.085353	0.096655	1366.994019
2848.231973	0.085364	0.096655	1443.223877
2848.232918	0.085433	0.096655	1523.958374
2848.233825	0.085327	0.096655	1601.350098
2848.234724	0.085364	0.096655	1678.092163
2848.235655	0.085474	0.096655	1757.668091
2848.236559	0.085426	0.096655	1834.893188
2849.315277	1.047404	0.094649	463.999786
2849.316254	0.545588	0.094649	997.039673
2849.317166	0.087231	0.094649	1076.594727
2849.318060	0.085313	0.094649	1152.864136
2849.318945	0.085364	0.094649	1228.411133
2849.319881	0.085419	0.094649	1308.363037
2849.320784	0.085265	0.094649	1385.357178
2849.321671	0.085331	0.094649	1461.045654
2849.322602	0.085367	0.094649	1540.522705
2849.323502	0.085327	0.094649	1617.317139
2849.324404	0.085225	0.094649	1694.189697
2849.325290	0.085294	0.094649	1769.760376
2850.293962	1.043145	0.098037	457.940460
2850.294857	0.660864	0.098037	1049.414062
2850.295817	0.087748	0.098037	1133.651978
2850.296726	0.085349	0.098037	1211.234375
2850.297629	0.085367	0.098037	1288.321167
2850.298521	0.085375	0.098037	1364.475464
2850.299461	0.085408	0.098037	1444.758667
2850.300362	0.085305	0.098037	1521.618652
2850.301253	0.085367	0.098037	1597.681030
2850.302193	0.085448	0.098037	1678.002197
2850.303092	0.085411	0.098037	1754.786987
2850.303991	0.085331	0.098037	1831.499390
2851.380197	1.074188	0.094875	491.978210
2851.381101	0.623624	0.094875	1055.734619
2851.381991	0.088857	0.094875	1134.817749
2851.382949	0.085327	0.094875	1216.561157
2851.383844	0.085283	0.094875	1292.889648
2851.384729	0.085323	0.094875	1368.400879
2851.385657	0.085327	0.094875	1447.584473
2851.386577	0.085236	0.094875	1526.001221
2851.387483	0.085313	0.094875	1603.294312
2851.388375	0.085323	0.094875	1679.402832
2851.389306	0.085334	0.094875	1758.849243
2851.390219	0.085316	0.094875	1836.742920
2852.361674	1.040643	0.097167	452.679840
2852.362577	0.648538	0.097167	1038.309326
2852.363542	0.087678	0.097167	1122.918823
2852.364446	0.085258	0.097167	1199.991699
2852.365335	0.085276	0.097167	1275.802002
2852.366283	0.085367	0.097167	1356.730347
2852.367204	0.085327	0.097167	1435.316650
2852.368121	0.085261	0.097167	1513.501221
2852.369006	0.085302	0.097167	1588.993042
2852.369956	0.085327	0.097167	1670.053833
2852.370845	0.085269	0.097167	1745.857544
2852.371733	0.085342	0.097167	1821.641113
2853.444553	1.040149	0.094069	453.504944
2853.445511	0.574830	0.094069	1004.192444
2853.446422	0.087726	0.094069	1084.110718
2853.447323	0.085386	0.094069	1161.043213
2853.448228	0.085382	0.094069	1238.313965
2853.449159	0.085470	0.094069	1317.886475
2853.450065	0.085404	0.094069	1395.262573
2853.450961	0.085444	0.094069	1471.820679
2853.451915	0.085485	0.094069	1553.373047
2853.452819	0.085444	0.094069	1630.614746
2853.453717	0.085408	0.094069	1707.310913
2853.454605	0.085437	0.094069	1783.178955
2854.428656	1.089825	0.096067	508.948456
2854.429576	0.579829	0.096067	1042.391235
2854.430483	0.087799	0.096067	1122.025024
2854.431375	0.085269	0.096067	1198.084595
2854.432330	0.085393	0.096067	1279.635010
2854.433235	0.085298	0.096067	1356.829590
2854.434131	0.085382	0.096067	1433.331909
2854.435070	0.085422	0.096067	1513.543457
2854.435975	0.085466	0.096067	1590.890503
2854.436873	0.085400	0.096067	1667.580078
2854.437759	0.085334	0.096067	1743.186401
2854.438703	0.085382	0.096067	1823.787109
2855.510995	1.054431	0.094311	469.221893
2855.511978	0.525121	0.094311	985.415649
2855.512876	0.087294	0.094311	1063.805420
2855.513780	0.085269	0.094311	1140.888184
2855.514673	0.085323	0.094311	1217.082031
2855.515614	0.085507	0.094311	1297.543701
2855.516512	0.085320	0.094311	1374.160889
2855.517407	0.085356	0.094311	1450.554932
2855.518333	0.085415	0.094311	1529.649292
2855.519235	0.085452	0.094311	1606.726685
2855.520135	0.085382	0.094311	1683.570557
2855.521022	0.085349	0.094311	1759.275269
2856.495573	1.060558	0.096804	473.008850
2856.496488	0.622313	0.096804	1042.425537
2856.497386	0.088528	0.096804	1121.923584
2856.498317	0.085371	0.096804	1201.404053
2856.499222	0.085367	0.096804	1278.661621
2856.500119	0.085327	0.096804	1355.200073
2856.501006	0.085298	0.096804	1430.859253
2856.501947	0.085426	0.096804	1511.245117
2856.502849	0.085305	0.096804	1588.190430
2856.503743	0.085353	0.096804	1664.495850
2856.504663	0.085316	0.096804	1742.986694
2856.505587	0.085397	0.096804	1821.893311
2857.577172	1.046213	0.093735	462.426331
2857.578071	0.651398	0.093735	1048.032959
2857.579015	0.088971	0.093735	1132.021484
2857.579925	0.085261	0.093735	1209.609253
2857.580843	0.085371	0.093735	1287.979980
2857.581730	0.085371	0.093735	1363.704102
2857.582674	0.085349	0.093735	1444.273682
2857.583577	0.085309	0.093735	1521.307617
2857.584466	0.085331	0.093735	1597.166748
2857.585365	0.085294	0.093735	1673.846191
2857.586304	0.085305	0.093735	1753.947754
2857.587205	0.085291	0.093735	1830.794556
2858.561999	1.051154	0.098182	463.558716
2858.562929	0.612861	0.098182	1033.519775
2858.563830	0.088312	0.098182	1113.088623
2858.564771	0.085309	0.098182	1193.364258
2858.565676	0.085338	0.098182	1270.595215
2858.566572	0.085386	0.098182	1347.100830
2858.567457	0.085360	0.098182	1422.644531
2858.568394	0.085382	0.098182	1502.647583
2858.569304	0.085393	0.098182	1580.355225
2858.570205	0.085371	0.098182	1657.274536
2858.571122	0.085323	0.098182	1735.516113
2858.572044	0.085441	0.098182	1814.292358
2859.644680	1.106832	0.092594	553.416138
2859.645610	0.518983	0.092594	1036.070557
2859.646516	0.087155	0.092594	1115.032593
2859.647405	0.085375	0.092594	1190.930786
2859.648358	0.085488	0.092594	1272.401123
2859.649262	0.085386	0.092594	1349.589844
2859.650154	0.085393	0.092594	1425.760498
2859.651082	0.085444	0.092594	1505.052856
2859.651995	0.085521	0.092594	1583.133789
2859.652903	0.085400	0.092594	1660.677368
2859.653804	0.085404	0.092594	1737.626465
2859.654735	0.085444	0.092594	1817.175171
2860.628701	1.061382	0.098778	470.192139
2860.629606	0.642748	0.098778	1051.878906
2860.630493	0.089246	0.098778	1131.039795
2860.631442	0.085426	0.098778	1212.109131
2860.632342	0.085466	0.098778	1289.028809
2860.633235	0.085411	0.098778	1365.301147
2860.634125	0.085492	0.098778	1441.389038
2860.635080	0.085525	0.098778	1523.065308
2860.635989	0.085404	0.098778	1600.697632
2860.636885	0.085437	0.098778	1677.249146
2860.637816	0.085485	0.098778	1756.835327
2860.638714	0.085430	0.098778	1833.551147
2861.712083	1.049601	0.093344	463.923584
2861.712981	0.656895	0.093344	1053.814941
2861.713868	0.089506	0.093344	1133.206421
2861.714826	0.085400	0.093344	1215.020020
2861.715736	0.085408	0.093344	1292.741089
2861.716634	0.085470	0.093344	1369.493164
2861.717557	0.085514	0.093344	1448.422485
2861.718454	0.085470	0.093344	1525.089111
2861.719354	0.085404	0.093344	1601.952759
2861.720244	0.085419	0.093344	1677.975342
2861.721190	0.085463	0.093344	1758.822998
2861.722091	0.085455	0.093344	1835.818237
2862.693579	1.044174	0.099559	456.303864
2862.694531	0.635332	0.099559	1061.140015
2862.695435	0.087924	0.099559	1140.622925
2862.696337	0.085291	0.099559	1217.554932
2862.697228	0.085342	0.099559	1293.594482
2862.698160	0.085437	0.099559	1373.221802
2862.699064	0.085397	0.099559	1450.420410
2862.699969	0.085397	0.099559	1527.704468
2862.700860	0.085360	0.099559	1603.760376
2862.701816	0.085426	0.099559	1685.427612
2862.702720	0.085364	0.099559	1762.596436
2862.703607	0.085371	0.099559	1838.320557
2863.779786	1.040361	0.092474	451.516846
2863.780738	0.624866	0.092474	1046.388916
2863.781643	0.087854	0.092474	1125.896729
2863.782540	0.085323	0.092474	1202.431885
2863.783431	0.085408	0.092474	1278.530151
2863.784385	0.085367	0.092474	1359.970703
2863.785277	0.085404	0.092474	1436.151123
2863.786181	0.085411	0.092474	1513.363037
2863.787068	0.085389	0.092474	1589.103394
2863.788011	0.085474	0.092474	1669.705078
2863.788917	0.085367	0.092474	1747.047974
2863.789814	0.085375	0.092474	1823.629150
2864.760277	1.063682	0.099676	476.529358
2864.761254	0.532218	0.099676	996.506348
2864.762165	0.087290	0.099676	1076.027588
2864.763055	0.085250	0.099676	1151.900269
2864.763979	0.085426	0.099676	1230.833862
2864.764887	0.085448	0.099676	1308.420654
2864.765785	0.085316	0.099676	1385.034546
2864.766676	0.085367	0.099676	1461.096924
2864.767612	0.085400	0.099676	1541.031738
2864.768519	0.085477	0.099676	1618.559692
2864.769420	0.085411	0.099676	1695.515381
2864.770307	0.085353	0.099676	1771.223267
2865.846990	1.050769	0.092204	462.338409
2865.847948	0.583561	0.092204	1021.389648
2865.848860	0.087861	0.092204	1101.519165
2865.849750	0.085367	0.092204	1177.496216
2865.850681	0.085415	0.092204	1257.017578
2865.851584	0.085496	0.092204	1334.220093
2865.852490	0.085367	0.092204	1411.562988
2865.853382	0.085397	0.092204	1487.736816
2865.854344	0.085419	0.092204	1569.909668
2865.855252	0.085382	0.092204	1647.436646
2865.856148	0.085415	0.092204	1723.968506
2865.857062	0.085397	0.092204	1802.021118
2866.825180	1.065425	0.100067	480.506592
2866.826080	0.638214	0.100067	1054.899292
2866.827015	0.088949	0.100067	1138.066528
2866.827914	0.085422	0.100067	1214.861206
2866.828812	0.085426	0.100067	1291.573730
2866.829711	0.085419	0.100067	1368.365112
2866.830633	0.085430	0.100067	1447.131226
2866.831539	0.085437	0.100067	1524.537109
2866.832441	0.085430	0.100067	1601.594727
2866.833327	0.085437	0.100067	1677.291870
2866.834271	0.085518	0.100067	1758.020508
2866.835174	0.085386	0.100067	1835.123779
2867.913171	1.046902	0.090286	463.777496
2867.914071	0.653174	0.090286	1051.633911
2867.915010	0.089209	0.090286	1135.401123
2867.915920	0.085444	0.090286	1213.155518
2867.916843	0.085437	0.090286	1292.013916
2867.917725	0.085441	0.090286	1367.372559
2867.918667	0.085419	0.090286	1447.836914
2867.919568	0.085441	0.090286	1524.818970
2867.920493	0.085400	0.090286	1603.814331
2867.921379	0.085367	0.090286	1679.449829
2867.922341	0.085393	0.090286	1761.597900
2867.923264	0.085371	0.090286	1840.395386
2868.892873	1.037454	0.099894	447.142517
2868.893838	0.589186	0.099894	1015.706787
2868.894729	0.088136	0.099894	1094.235962
2868.895635	0.085408	0.099894	1171.615356
2868.896525	0.085481	0.099894	1247.693359
2868.897485	0.085481	0.099894	1329.755127
2868.898397	0.085466	0.099894	1407.700439
2868.899304	0.085463	0.099894	1485.215088
2868.900238	0.085521	0.099894	1565.091919
2868.901134	0.085598	0.099894	1641.787842
2868.902030	0.085448	0.099894	1718.349243
2868.902916	0.085444	0.099894	1794.052979
2869.978584	1.058236	0.091229	471.973267
2869.979485	0.637804	0.091229	1046.634644
2869.980433	0.087817	0.091229	1129.885498
2869.981349	0.085386	0.091229	1208.098877
2869.982255	0.085408	0.091229	1285.478271
2869.983142	0.085378	0.091229	1361.208984
2869.984105	0.085422	0.091229	1443.470703
2869.985008	0.085353	0.091229	1520.544312
2869.985899	0.085367	0.091229	1596.606689
2869.986852	0.085496	0.091229	1678.083984
2869.987748	0.085411	0.091229	1754.612549
2869.988646	0.085302	0.091229	1831.213257
2870.963463	1.097820	0.100120	548.909912
2870.964391	0.521125	0.100120	1032.514404
2870.965297	0.087125	0.100120	1111.449829
2870.966185	0.085356	0.100120	1187.246338
2870.967131	0.085367	0.100120	1268.003906
2870.968031	0.085393	0.100120	1344.857666
2870.968925	0.085342	0.100120	1421.153198
2870.969836	0.085353	0.100120	1498.909546
2870.970772	0.085345	0.100120	1578.792847
2870.971681	0.085386	0.100120	1656.408447
2870.972579	0.085415	0.100120	1733.111206
2870.973502	0.085386	0.100120	1811.922241
2872.039111	1.041324	0.089992	455.058807
2872.040004	0.656250	0.089992	1041.090088
2872.040965	0.087836	0.089992	1125.500244
2872.041874	0.085345	0.089992	1203.079224
2872.042763	0.085463	0.089992	1279.055542
2872.043691	0.085463	0.089992	1358.364868
2872.044591	0.085444	0.089992	1435.264771
2872.045482	0.085397	0.089992	1511.353271
2872.046374	0.085356	0.089992	1587.491211
2872.047305	0.085496	0.089992	1667.087646
2872.048216	0.085334	0.089992	1744.827393
2872.049117	0.085386	0.089992	1821.759888
2873.034976	1.053574	0.101094	475.161957
2873.035881	0.630718	0.101094	1045.961548
2873.036794	0.088982	0.101094	1127.202026
2873.037709	0.085287	0.101094	1205.239502
2873.038607	0.085313	0.101094	1281.850098
2873.039493	0.085356	0.101094	1357.475952
2873.040431	0.085430	0.101094	1437.609009
2873.041342	0.085360	0.101094	1515.372070
2873.042239	0.085389	0.101094	1591.966309
2873.043129	0.085364	0.101094	1667.940063
2873.044077	0.085404	0.101094	1748.903076
2873.044984	0.085367	0.101094	1826.331299
2874.098634	1.035198	0.089896	447.205414
2874.099567	0.650651	0.089896	1054.262451
2874.100494	0.087931	0.089896	1135.774414
2874.101408	0.085276	0.089896	1213.716553
2874.102300	0.085378	0.089896	1289.874146
2874.103235	0.085415	0.089896	1369.737183
2874.104127	0.085382	0.089896	1445.897949
2874.105027	0.085367	0.089896	1522.728638
2874.105917	0.085331	0.089896	1598.673096
2874.106859	0.085393	0.089896	1679.113403
2874.107767	0.085422	0.089896	1756.676880
2874.108664	0.085408	0.089896	1833.287598
2875.107277	1.053051	0.100325	461.236115
2875.108189	0.642726	0.100325	1047.402100
2875.109080	0.088971	0.100325	1126.675171
2875.110036	0.085378	0.100325	1208.296875
2875.110933	0.085437	0.100325	1284.933838
2875.111840	0.085422	0.100325	1362.411865
2875.112746	0.085459	0.100325	1439.837646
2875.113669	0.085393	0.100325	1518.655396
2875.114570	0.085393	0.100325	1595.594604
2875.115458	0.085419	0.100325	1671.446411
2875.116394	0.085389	0.100325	1751.370850
2875.117298	0.085444	0.100325	1828.612549
2876.160260	1.064158	0.090629	527.822205
2876.161196	0.523140	0.090629	1017.480957
2876.162089	0.087155	0.090629	1095.309937
2876.162983	0.085309	0.090629	1171.576050
2876.163932	0.085338	0.090629	1252.561890
2876.164827	0.085276	0.090629	1328.883789
2876.165750	0.085364	0.090629	1407.674561
2876.166647	0.085334	0.090629	1484.219604
2876.167604	0.085389	0.090629	1565.937256
2876.168516	0.085298	0.090629	1643.728882
2876.169405	0.085386	0.090629	1719.636841
2876.170333	0.085389	0.090629	1798.878174
2877.178568	1.045203	0.097888	456.753540
2877.179541	0.582524	0.097888	1023.549805
2877.180449	0.087539	0.097888	1103.035278
2877.181349	0.085331	0.097888	1179.833008
2877.182236	0.085375	0.097888	1255.560425
2877.183177	0.085349	0.097888	1335.873901
2877.184088	0.085378	0.097888	1413.653687
2877.184984	0.085334	0.097888	1490.113403
2877.185902	0.085294	0.097888	1568.413452
2877.186827	0.085455	0.097888	1647.459595
2877.187731	0.085316	0.097888	1724.585449
2877.188628	0.085353	0.097888	1801.146851
2878.222794	1.056365	0.094593	461.631409
2878.223763	0.553110	0.094593	997.595337
2878.224670	0.087634	0.094593	1077.079590
2878.225565	0.085338	0.094593	1153.457275
2878.226510	0.085466	0.094593	1234.222900
2878.227422	0.085437	0.094593	1312.141479
2878.228321	0.085393	0.094593	1388.909912
2878.229211	0.085349	0.094593	1464.870605
2878.230155	0.085408	0.094593	1545.495483
2878.231064	0.085393	0.094593	1623.117798
2878.231961	0.085408	0.094593	1699.728516
2878.232848	0.085400	0.094593	1775.478638
2879.248838	1.049740	0.097614	459.786102
2879.249811	0.553173	0.097614	998.023071
2879.250717	0.087557	0.097614	1077.350098
2879.251614	0.085294	0.097614	1153.859009
2879.252544	0.085474	0.097614	1233.349487
2879.253445	0.085437	0.097614	1310.328247
2879.254342	0.085375	0.097614	1386.909424
2879.255229	0.085386	0.097614	1462.646606
2879.256167	0.085496	0.097614	1542.841431
2879.257073	0.085411	0.097614	1620.224121
2879.257978	0.085378	0.097614	1697.491577
2879.258865	0.085382	0.097614	1773.225464
2880.287445	1.060924	0.095575	474.233063
2880.288349	0.641261	0.095575	1053.932983
2880.289281	0.088557	0.095575	1136.468262
2880.290186	0.085364	0.095575	1213.722412
2880.291091	0.085441	0.095575	1291.046265
2880.291979	0.085400	0.095575	1366.881836
2880.292926	0.085477	0.095575	1447.828857
2880.293838	0.085430	0.095575	1525.740723
2880.294733	0.085327	0.095575	1602.108521
2880.295666	0.085430	0.095575	1681.814453
2880.296572	0.085470	0.095575	1759.250244
2880.297477	0.085360	0.095575	1836.501099
2881.318601	1.054428	0.097940	463.948090
2881.319603	0.498417	0.097940	963.361694
2881.320513	0.086825	0.097940	1042.372437
2881.321411	0.085397	0.097940	1119.058716
2881.322337	0.085452	0.097940	1198.187012
2881.323241	0.085444	0.097940	1275.428711
2881.324136	0.085323	0.097940	1351.793213
2881.325020	0.085408	0.097940	1427.293579
2881.325947	0.085477	0.097940	1506.531006
2881.326849	0.085415	0.097940	1583.575317
2881.327756	0.085400	0.097940	1661.033447
2881.328647	0.085345	0.097940	1737.076294
2882.351827	1.054113	0.096877	468.025970
2882.352791	0.559442	0.096877	1007.328247
2882.353705	0.087649	0.096877	1087.439331
2882.354600	0.085349	0.096877	1163.826782
2882.355538	0.085433	0.096877	1243.963257
2882.356436	0.085433	0.096877	1320.682373
2882.357343	0.085415	0.096877	1398.153809
2882.358234	0.085430	0.096877	1474.271606
2882.359161	0.085485	0.096877	1553.515869
2882.360063	0.085444	0.096877	1630.586670
2882.360961	0.085415	0.096877	1707.289429
2882.361849	0.085448	0.096877	1783.167236
2883.387848	1.042548	0.096228	453.508209
2883.388790	0.630608	0.096228	1047.540894
2883.389709	0.087832	0.096228	1128.258545
2883.390608	0.085404	0.096228	1205.036743
2883.391494	0.085389	0.096228	1280.691772
2883.392450	0.085452	0.096228	1362.383545
2883.393352	0.085334	0.096228	1439.355225
2883.394254	0.085408	0.096228	1516.392944
2883.395141	0.085397	0.096228	1592.139893
2883.396076	0.085408	0.096228	1671.996094
2883.396982	0.085411	0.096228	1749.378784
2883.397877	0.085419	0.096228	1825.828491
2884.417486	1.047034	0.097843	458.600739
2884.418386	0.637350	0.097843	1032.215576
2884.419339	0.087869	0.097843	1115.954346
2884.420251	0.085389	0.097843	1193.829468
2884.421154	0.085389	0.097843	1270.936157
2884.422098	0.085367	0.097843	1351.523071
2884.423004	0.085514	0.097843	1428.998657
2884.423906	0.085397	0.097843	1506.026489
2884.424793	0.085422	0.097843	1581.796143
2884.425732	0.085448	0.097843	1662.031860
2884.426629	0.085404	0.097843	1738.639282
2884.427525	0.085382	0.097843	1815.141602
2885.454293	1.053911	0.094875	464.774780
2885.455245	0.609906	0.094875	1045.405273
2885.456158	0.087865	0.094875	1125.625977
2885.457053	0.085397	0.094875	1202.056030
2885.457941	0.085481	0.094875	1277.963135
2885.458874	0.085514	0.094875	1357.747559
2885.459776	0.085510	0.094875	1434.877808
2885.460676	0.085430	0.094875	1511.764526
2885.461565	0.085393	0.094875	1587.678955
2885.462513	0.085485	0.094875	1668.718384
2885.463427	0.085470	0.094875	1746.837891
2885.464325	0.085444	0.094875	1823.566895
2886.484424	1.042320	0.096454	453.409424
2886.485384	0.597964	0.096454	1027.454712
2886.486281	0.088099	0.096454	1106.479858
2886.487189	0.085313	0.096454	1183.943604
2886.488080	0.085400	0.096454	1260.035400
2886.489041	0.085419	0.096454	1342.122803
2886.489950	0.085452	0.096454	1419.798340
2886.490845	0.085393	0.096454	1496.225098
2886.491787	0.085419	0.096454	1576.689453
2886.492689	0.085463	0.096454	1653.776733
2886.493581	0.085419	0.096454	1729.970215
2886.494470	0.085393	0.096454	1805.884644
2887.520461	1.044862	0.093420	457.649567
2887.521355	0.654800	0.093420	1043.040527
2887.522325	0.087788	0.093420	1128.194946
2887.523229	0.085386	0.093420	1205.383667
2887.524130	0.085382	0.093420	1282.312866
2887.525063	0.085474	0.093420	1362.059814
2887.525956	0.085547	0.093420	1438.453125
2887.526849	0.085459	0.093420	1514.767944
2887.527735	0.085441	0.093420	1590.468384
2887.528673	0.085518	0.093420	1670.683838
2887.529582	0.085481	0.093420	1748.385986
2887.530492	0.085404	0.093420	1826.103638
2888.549837	1.047319	0.096494	462.915131
2888.550740	0.647692	0.096494	1047.780762
2888.551689	0.089026	0.096494	1132.266357
2888.552592	0.085452	0.096494	1209.429199
2888.553495	0.085437	0.096494	1286.578857
2888.554381	0.085422	0.096494	1362.263062
2888.555331	0.085525	0.096494	1443.511719
2888.556239	0.085492	0.096494	1521.138428
2888.557136	0.085474	0.096494	1597.808228
2888.558028	0.085452	0.096494	1674.031128
2888.558973	0.085518	0.096494	1754.845215
2888.559880	0.085397	0.096494	1832.300049
2889.586640	1.047455	0.093481	458.785217
2889.587535	0.662161	0.093481	1051.418945
2889.588484	0.088033	0.093481	1134.962646
2889.589390	0.085353	0.093481	1212.292236
2889.590298	0.085415	0.093481	1289.849121
2889.591184	0.085408	0.093481	1365.520386
2889.592150	0.085485	0.093481	1448.098511
2889.593053	0.085400	0.093481	1525.215088
2889.593948	0.085452	0.093481	1601.694336
2889.594883	0.085532	0.093481	1681.666992
2889.595783	0.085455	0.093481	1758.576782
2889.596675	0.085404	0.093481	1834.757202
2890.616342	1.126190	0.095225	569.852234
2890.617252	0.539875	0.095225	1061.138916
2890.618141	0.087579	0.095225	1138.996948
2890.619087	0.085419	0.095225	1219.802979
2890.619985	0.085433	0.095225	1296.522095
2890.620901	0.085360	0.095225	1374.711914
2890.621798	0.085400	0.095225	1451.316040
2890.622753	0.085437	0.095225	1532.908447
2890.623658	0.085386	0.095225	1610.182495
2890.624551	0.085415	0.095225	1686.458130
2890.625471	0.085408	0.095225	1765.033203
2890.626391	0.085378	0.095225	1843.581299
2891.652829	1.063575	0.092603	479.672485
2891.653726	0.642023	0.092603	1055.566895
2891.654684	0.088945	0.092603	1140.776489
2891.655589	0.085499	0.092603	1218.153320
2891.656486	0.085426	0.092603	1294.780518
2891.657376	0.085459	0.092603	1370.838989
2891.658320	0.085562	0.092603	1451.609131
2891.659224	0.085474	0.092603	1528.877319
2891.660131	0.085433	0.092603	1606.365356
2891.661018	0.085455	0.092603	1682.164185
2891.661972	0.085496	0.092603	1763.726929
2891.662877	0.085408	0.092603	1841.020874
2892.682213	1.072636	0.095970	485.903900
2892.683121	0.625521	0.095970	1053.877197
2892.684008	0.088813	0.095970	1132.654785
2892.684960	0.085393	0.095970	1213.948975
2892.685863	0.085518	0.095970	1291.171387
2892.686759	0.085400	0.095970	1367.690186
2892.687650	0.085455	0.095970	1443.830933
2892.688595	0.085485	0.095970	1524.613892
2892.689508	0.085448	0.095970	1602.627930
2892.690408	0.085474	0.095970	1679.554199
2892.691295	0.085474	0.095970	1755.369263
2892.692239	0.085510	0.095970	1836.090942
2893.720010	1.037977	0.091894	449.444183
2893.720949	0.640331	0.091894	1050.714844
2893.721865	0.088033	0.091894	1131.353516
2893.722780	0.085426	0.091894	1209.518311
2893.723674	0.085430	0.091894	1285.892456
2893.724606	0.085532	0.091894	1365.608521
2893.725507	0.085492	0.091894	1442.636719
2893.726405	0.085452	0.091894	1519.372314
2893.727293	0.085455	0.091894	1595.256592
2893.728230	0.085488	0.091894	1675.359131
2893.729138	0.085470	0.091894	1752.965820
2893.730034	0.085466	0.091894	1829.543579
2894.748891	1.062656	0.095410	477.132629
2894.749794	0.633369	0.095410	1049.064941
2894.750678	0.089260	0.095410	1127.970947
2894.751626	0.085466	0.095410	1208.993042
2894.752539	0.085386	0.095410	1286.950195
2894.753436	0.085481	0.095410	1363.626587
2894.754376	0.085507	0.095410	1444.002808
2894.755285	0.085455	0.095410	1521.681641
2894.756183	0.085389	0.095410	1598.361328
2894.757072	0.085466	0.095410	1674.340820
2894.758020	0.085474	0.095410	1755.369873
2894.758916	0.085529	0.095410	1832.003418
2895.786954	1.044913	0.091454	458.716949
2895.787929	0.546940	0.091454	991.983154
2895.788838	0.087477	0.091454	1071.499512
2895.789744	0.085378	0.091454	1148.852295
2895.790634	0.085466	0.091454	1224.917358
2895.791574	0.085602	0.091454	1305.383057
2895.792479	0.085404	0.091454	1382.673706
2895.793373	0.085474	0.091454	1459.087158
2895.794313	0.085455	0.091454	1539.415161
2895.795209	0.085404	0.091454	1615.937256
2895.796106	0.085488	0.091454	1692.620239
2895.796996	0.085389	0.091454	1768.616821
2896.814608	1.085017	0.094987	555.528748
2896.815531	0.527607	0.094987	1042.510376
2896.816423	0.087246	0.094987	1120.333862
2896.817315	0.085397	0.094987	1196.507690
2896.818250	0.085419	0.094987	1276.374146
2896.819161	0.085393	0.094987	1354.167236
2896.820064	0.085400	0.094987	1431.283813
2896.820949	0.085470	0.094987	1506.924683
2896.821881	0.085426	0.094987	1586.541748
2896.822779	0.085393	0.094987	1663.224731
2896.823667	0.085415	0.094987	1739.073242
2896.824618	0.085426	0.094987	1820.313354
2897.851598	1.049136	0.093884	461.619690
2897.852504	0.651152	0.093884	1051.563721
2897.853394	0.089425	0.093884	1131.151978
2897.854355	0.085474	0.093884	1213.292114
2897.855253	0.085477	0.093884	1290.050781
2897.856153	0.085459	0.093884	1366.963867
2897.857044	0.085422	0.093884	1443.075195
2897.857978	0.085459	0.093884	1522.893921
2897.858887	0.085397	0.093884	1600.519531
2897.859785	0.085474	0.093884	1677.274902
2897.860710	0.085455	0.093884	1756.321045
2897.861611	0.085551	0.093884	1833.402100
2898.881750	1.056694	0.094371	466.002228
2898.882663	0.631450	0.094371	1042.516235
2898.883552	0.089041	0.094371	1121.673218
2898.884510	0.085393	0.094371	1203.479736
2898.885414	0.085291	0.094371	1280.582397
2898.886304	0.085313	0.094371	1356.510498
2898.887241	0.085382	0.094371	1436.513550
2898.888148	0.085521	0.094371	1514.081299
2898.889049	0.085360	0.094371	1590.990723
2898.889938	0.085408	0.094371	1666.918213
2898.890894	0.085441	0.094371	1748.599487
2898.891789	0.085448	0.094371	1825.075439
2899.917790	1.062316	0.095656	474.855133
2899.918716	0.608163	0.095656	1038.013916
2899.919612	0.088396	0.095656	1117.216675
2899.920557	0.085356	0.095656	1197.878540
2899.921458	0.085514	0.095656	1274.926636
2899.922360	0.085404	0.095656	1351.961060
2899.923250	0.085448	0.095656	1428.009766
2899.924192	0.085551	0.095656	1508.598389
2899.925093	0.085521	0.095656	1585.653076
2899.926000	0.085400	0.095656	1663.111206
2899.926889	0.085426	0.095656	1739.054932
2899.927821	0.085419	0.095656	1818.665161
2900.949468	1.058525	0.094286	481.629089
2900.950362	0.642195	0.094286	1055.751221
2900.951322	0.088792	0.094286	1140.991089
2900.952218	0.085360	0.094286	1217.473755
2900.953137	0.085334	0.094286	1295.896118
2900.954035	0.085313	0.094286	1372.506714
2900.954972	0.085302	0.094286	1452.434204
2900.955876	0.085353	0.094286	1529.593140
2900.956793	0.085389	0.094286	1607.895264
2900.957682	0.085356	0.094286	1683.777100
2900.958631	0.085313	0.094286	1764.738647
2900.959526	0.085302	0.094286	1841.083496
2901.982164	1.051824	0.096224	464.906097
2901.983058	0.653265	0.096224	1048.925415
2901.984020	0.087920	0.096224	1133.504395
2901.984937	0.085382	0.096224	1211.799805
2901.985829	0.085415	0.096224	1287.989990
2901.986737	0.085400	0.096224	1365.533569
2901.987670	0.085510	0.096224	1445.314697
2901.988579	0.085408	0.096224	1522.950317
2901.989481	0.085419	0.096224	1599.998047
2901.990413	0.085452	0.096224	1679.639038
2901.991314	0.085404	0.096224	1756.588135
2901.992216	0.085503	0.096224	1833.711792
2903.019471	1.041779	0.093718	458.382568
2903.020366	0.660348	0.093718	1049.393921
2903.021315	0.088202	0.093718	1133.097534
2903.022218	0.085382	0.093718	1210.197510
2903.023136	0.085437	0.093718	1288.628662
2903.024035	0.085459	0.093718	1365.456299
2903.024982	0.085441	0.093718	1446.368652
2903.025887	0.085382	0.093718	1523.639404
2903.026778	0.085481	0.093718	1599.802979
2903.027709	0.085499	0.093718	1679.402832
2903.028622	0.085444	0.093718	1757.413574
2903.029538	0.085481	0.093718	1835.714111
2904.044497	1.053270	0.097231	468.705261
2904.045398	0.647589	0.097231	1052.183105
2904.046283	0.089392	0.097231	1131.295166
2904.047231	0.085393	0.097231	1212.247803
2904.048140	0.085397	0.097231	1289.873413
2904.049039	0.085448	0.097231	1366.691162
2904.049969	0.085507	0.097231	1446.212280
2904.050881	0.085433	0.097231	1524.127441
2904.051785	0.085444	0.097231	1601.369141
2904.052677	0.085426	0.097231	1677.569092
2904.053614	0.085488	0.097231	1757.671631
2904.054518	0.085459	0.097231	1834.926514
2905.090512	1.048264	0.090387	461.236237
2905.091441	0.624617	0.090387	1041.505127
2905.092339	0.088605	0.090387	1121.072144
2905.093273	0.085430	0.090387	1200.863525
2905.094174	0.085543	0.090387	1277.937988
2905.095071	0.085419	0.090387	1354.558594
2905.095958	0.085415	0.090387	1430.321777
2905.096891	0.085503	0.090387	1510.095947
2905.097798	0.085488	0.090387	1587.633789
2905.098705	0.085408	0.090387	1665.098633
2905.099594	0.085415	0.090387	1741.032593
2905.100541	0.085521	0.090387	1822.021240
2906.107098	1.063143	0.098125	472.035645
2906.108031	0.602446	0.098125	1034.118042
2906.108928	0.088297	0.098125	1113.320557
2906.109849	0.085426	0.098125	1191.997925
2906.110764	0.085547	0.098125	1270.273315
2906.111666	0.085452	0.098125	1347.350708
2906.112558	0.085558	0.098125	1423.668335
2906.113510	0.085525	0.098125	1505.088013
2906.114417	0.085551	0.098125	1582.682373
2906.115312	0.085503	0.098125	1659.207520
2906.116201	0.085452	0.098125	1735.174072
2906.117141	0.085598	0.098125	1815.636353
2907.162074	1.054105	0.088590	469.076782
2907.162970	0.650149	0.088590	1051.610229
2907.163925	0.088030	0.088590	1135.678711
2907.164832	0.085422	0.088590	1213.156738
2907.165729	0.085367	0.088590	1289.731323
2907.166621	0.085400	0.088590	1365.908447
2907.167566	0.085510	0.088590	1446.715576
2907.168473	0.085422	0.088590	1524.193604
2907.169362	0.085411	0.088590	1600.124268
2907.170290	0.085415	0.088590	1679.389404
2907.171196	0.085463	0.088590	1756.818604
2907.172090	0.085459	0.088590	1833.218994
2908.167159	1.064612	0.098327	515.272095
2908.168089	0.570282	0.098327	1045.634277
2908.169005	0.087513	0.098327	1125.796631
2908.169893	0.085397	0.098327	1201.628906
2908.170836	0.085408	0.098327	1282.168335
2908.171742	0.085382	0.098327	1359.524536
2908.172664	0.085382	0.098327	1438.246826
2908.173554	0.085411	0.098327	1514.262939
2908.174508	0.085404	0.098327	1595.738403
2908.175413	0.085466	0.098327	1673.085449
2908.176301	0.085466	0.098327	1748.979492
2908.177251	0.085532	0.098327	1830.235107
2909.234668	1.074130	0.087736	495.173798
2909.235573	0.621394	0.087736	1057.535400
2909.236457	0.088792	0.087736	1136.027100
2909.237376	0.085386	0.087736	1214.496582
2909.238306	0.085415	0.087736	1293.932617
2909.239226	0.085386	0.087736	1372.487549
2909.240118	0.085426	0.087736	1448.687500
2909.241060	0.085367	0.087736	1529.103638
2909.241970	0.085459	0.087736	1606.871338
2909.242891	0.085404	0.087736	1685.528442
2909.243779	0.085452	0.087736	1761.409546
2909.244739	0.085437	0.087736	1843.429077
2910.228956	1.058119	0.099507	477.211639
2910.229856	0.640444	0.099507	1053.611572
2910.230819	0.088784	0.099507	1139.110718
2910.231728	0.085422	0.099507	1216.759644
2910.232635	0.085441	0.099507	1294.254395
2910.233530	0.085433	0.099507	1370.717285
2910.234471	0.085375	0.099507	1451.054932
2910.235390	0.085393	0.099507	1529.531128
2910.236314	0.085444	0.099507	1608.481689
2910.237205	0.085426	0.099507	1684.596313
2910.238163	0.085408	0.099507	1766.416870
2910.239081	0.085419	0.099507	1844.831299
2911.305677	1.042211	0.087511	456.488281
2911.306569	0.659293	0.087511	1044.577881
2911.307534	0.088004	0.087511	1129.501831
2911.308429	0.085342	0.087511	1205.882690
2911.309317	0.085393	0.087511	1281.711792
2911.310274	0.085452	0.087511	1363.489014
2911.311167	0.085356	0.087511	1439.712280
2911.312082	0.085371	0.087511	1517.826782
2911.312977	0.085408	0.087511	1594.266724
2911.313917	0.085386	0.087511	1674.529297
2911.314817	0.085408	0.087511	1751.396240
2911.315734	0.085356	0.087511	1829.668091
2912.291297	1.059939	0.100764	481.212311
2912.292190	0.638756	0.100764	1051.621460
2912.293124	0.088770	0.100764	1134.532227
2912.294039	0.085349	0.100764	1212.626709
2912.294938	0.085360	0.100764	1289.365479
2912.295827	0.085375	0.100764	1365.263672
2912.296789	0.085565	0.100764	1447.577393
2912.297694	0.085422	0.100764	1524.884644
2912.298589	0.085433	0.100764	1601.347534
2912.299498	0.085386	0.100764	1678.963135
2912.300425	0.085375	0.100764	1758.105469
2912.301325	0.085408	0.100764	1834.972412
2913.375180	1.045917	0.087865	459.157410
2913.376168	0.540747	0.087865	993.415466
2913.377065	0.087404	0.087865	1071.816406
2913.377957	0.085331	0.087865	1147.931519
2913.378853	0.085360	0.087865	1224.414185
2913.379808	0.085397	0.087865	1305.968018
2913.380713	0.085389	0.087865	1383.245483
2913.381613	0.085411	0.087865	1460.115723
2913.382540	0.085349	0.087865	1539.234375
2913.383444	0.085433	0.087865	1616.466064
2913.384342	0.085518	0.087865	1693.260864
2913.385234	0.085408	0.087865	1769.444580
2914.355154	1.045576	0.099185	462.144623
2914.356046	0.656217	0.099185	1047.490234
2914.356994	0.087898	0.099185	1130.817505
2914.357911	0.085254	0.099185	1208.995361
2914.358802	0.085364	0.099185	1285.054443
2914.359720	0.085393	0.099185	1363.445312
2914.360671	0.085356	0.099185	1444.619263
2914.361569	0.085400	0.099185	1521.308838
2914.362458	0.085397	0.099185	1597.226562
2914.363399	0.085404	0.099185	1677.591797
2914.364307	0.085389	0.099185	1755.125366
2914.365230	0.085426	0.099185	1833.973633
2915.444177	1.050780	0.087845	466.546356
2915.445069	0.655250	0.087845	1051.029541
2915.446050	0.087528	0.087845	1136.894531
2915.446964	0.085345	0.087845	1214.900269
2915.447856	0.085371	0.087845	1291.051270
2915.448789	0.085371	0.087845	1370.702515
2915.449695	0.085470	0.087845	1448.138306
2915.450607	0.085375	0.087845	1526.000122
2915.451501	0.085378	0.087845	1602.328369
2915.452427	0.085459	0.087845	1681.463379
2915.453334	0.085437	0.087845	1758.954712
2915.454235	0.085349	0.087845	1835.854248
2916.419784	1.053428	0.098875	462.454773
2916.420755	0.555282	0.098875	1001.633545
2916.421687	0.087100	0.098875	1082.810425
2916.422591	0.085367	0.098875	1159.982544
2916.423527	0.085393	0.098875	1239.910400
2916.424442	0.085400	0.098875	1318.051758
2916.425358	0.085393	0.098875	1396.271851
2916.426246	0.085411	0.098875	1472.117187
2916.427195	0.085389	0.098875	1553.151733
2916.428094	0.085393	0.098875	1629.920166
2916.429015	0.085400	0.098875	1708.573975
2916.429904	0.085316	0.098875	1784.420044
2917.510885	1.084497	0.089178	504.291138
2917.511822	0.569692	0.089178	1038.092896
2917.512709	0.087916	0.089178	1116.074585
2917.513669	0.085349	0.089178	1198.009766
2917.514560	0.085448	0.089178	1274.143921
2917.515450	0.085338	0.089178	1350.094849
2917.516386	0.085452	0.089178	1430.077637
2917.517292	0.085430	0.089178	1507.476929
2917.518205	0.085437	0.089178	1585.480957
2917.519092	0.085437	0.089178	1661.263550
2917.520052	0.085485	0.089178	1743.328735
2917.520956	0.085441	0.089178	1820.567139
2918.484686	1.049099	0.095596	463.701782
2918.485654	0.562548	0.095596	1008.247864
2918.486556	0.087638	0.095596	1087.297241
2918.487455	0.085404	0.095596	1164.075439
2918.488345	0.085404	0.095596	1240.085083
2918.489297	0.085492	0.095596	1321.473389
2918.490207	0.085422	0.095596	1399.207764
2918.491100	0.085397	0.095596	1475.467041
2918.492034	0.085481	0.095596	1555.306274
2918.492932	0.085463	0.095596	1632.051758
2918.493827	0.085382	0.095596	1708.468750
2918.494716	0.085477	0.095596	1784.458008
2919.576270	1.050864	0.089021	462.380249
2919.577175	0.648838	0.089021	1049.578613
2919.578062	0.089421	0.089021	1128.895386
2919.579030	0.085426	0.089021	1211.587769
2919.579938	0.085448	0.089021	1289.174561
2919.580835	0.085496	0.089021	1365.864136
2919.581758	0.085441	0.089021	1444.725830
2919.582665	0.085485	0.089021	1522.260376
2919.583579	0.085378	0.089021	1600.296265
2919.584473	0.085393	0.089021	1676.637695
2919.585405	0.085466	0.089021	1756.292236
2919.586313	0.085422	0.089021	1833.855713
2920.553425	1.056061	0.094999	471.003113
2920.554335	0.630868	0.094999	1045.092896
2920.555280	0.088224	0.094999	1128.464478
2920.556184	0.085375	0.094999	1205.643311
2920.557084	0.085338	0.094999	1282.447632
2920.557971	0.085415	0.094999	1358.210815
2920.558925	0.085426	0.094999	1439.707275
2920.559823	0.085419	0.094999	1516.413330
2920.560712	0.085426	0.094999	1592.357056
2920.561636	0.085455	0.094999	1671.317749
2920.562540	0.085389	0.094999	1748.509766
2920.563441	0.085367	0.094999	1825.425781
2921.642969	1.057786	0.089473	472.830170
2921.643876	0.632743	0.089473	1046.728027
2921.644788	0.088967	0.089473	1127.866211
2921.645728	0.085477	0.089473	1208.214844
2921.646631	0.085393	0.089473	1285.324829
2921.647525	0.085444	0.089473	1361.712036
2921.648463	0.085408	0.089473	1441.824463
2921.649357	0.085441	0.089473	1518.208374
2921.650257	0.085382	0.089473	1595.052246
2921.651147	0.085331	0.089473	1670.996704
2921.652089	0.085470	0.089473	1751.509399
2921.652992	0.085397	0.089473	1828.622681
2922.620109	1.044229	0.095120	458.416321
2922.621004	0.661520	0.095120	1050.476562
2922.621968	0.087645	0.095120	1134.966553
2922.622882	0.085375	0.095120	1212.999023
2922.623783	0.085349	0.095120	1289.898560
2922.624702	0.085455	0.095120	1368.432007
2922.625610	0.085408	0.095120	1445.982178
2922.626528	0.085408	0.095120	1524.386475
2922.627421	0.085382	0.095120	1600.632690
2922.628351	0.085404	0.095120	1680.058472
2922.629259	0.085437	0.095120	1757.635254
2922.630163	0.085371	0.095120	1834.810791
2923.708890	1.068845	0.091523	484.186920
2923.709817	0.600853	0.091523	1041.177856
2923.710714	0.088271	0.091523	1120.357422
2923.711641	0.085404	0.091523	1199.526978
2923.712542	0.085400	0.091523	1276.472778
2923.713436	0.085382	0.091523	1352.804321
2923.714320	0.085419	0.091523	1428.314453
2923.715248	0.085444	0.091523	1507.606812
2923.716148	0.085426	0.091523	1584.490234
2923.717043	0.085404	0.091523	1660.926880
2923.717972	0.085463	0.091523	1740.321655
2923.718892	0.085485	0.091523	1818.967529
2924.687306	1.041969	0.094657	456.382385
2924.688196	0.651676	0.094657	1036.374023
2924.689150	0.087953	0.094657	1120.281006
2924.690057	0.085313	0.094657	1197.659424
2924.690948	0.085422	0.094657	1273.770752
2924.691880	0.085426	0.094657	1353.387817
2924.692789	0.085437	0.094657	1431.050049
2924.693686	0.085397	0.094657	1507.650879
2924.694572	0.085441	0.094657	1583.351318
2924.695520	0.085485	0.094657	1664.390747
2924.696414	0.085375	0.094657	1740.715820
2924.697328	0.085481	0.094657	1818.845459
2925.775338	1.078392	0.090443	494.982117
2925.776265	0.597832	0.090443	1049.172363
2925.777155	0.088451	0.090443	1127.893677
2925.778097	0.085470	0.090443	1208.406372
2925.778991	0.085408	0.090443	1284.760864
2925.779888	0.085382	0.090443	1361.348633
2925.780781	0.085463	0.090443	1437.666748
2925.781740	0.085485	0.090443	1519.646484
2925.782649	0.085430	0.090443	1597.302002
2925.783547	0.085488	0.090443	1674.070435
2925.784479	0.085503	0.090443	1753.759155
2925.785378	0.085514	0.090443	1830.636230
2926.752476	1.059056	0.095136	473.398224
2926.753396	0.619263	0.095136	1043.119873
2926.754295	0.088649	0.095136	1122.815063
2926.755248	0.085422	0.095136	1204.222534
2926.756160	0.085397	0.095136	1282.104370
2926.757058	0.085430	0.095136	1358.820190
2926.757949	0.085466	0.095136	1434.970703
2926.758895	0.085466	0.095136	1515.821777
2926.759801	0.085430	0.095136	1593.221069
2926.760695	0.085496	0.095136	1669.654175
2926.761625	0.085470	0.095136	1749.141235
2926.762539	0.085426	0.095136	1827.220581
2927.841496	1.063601	0.089086	475.429718
2927.842421	0.615267	0.089086	1044.552002
2927.843319	0.088418	0.089086	1123.951294
2927.844246	0.085371	0.089086	1203.090332
2927.845143	0.085573	0.089086	1279.848877
2927.846057	0.085415	0.089086	1357.918213
2927.846949	0.085463	0.089086	1434.150879
2927.847880	0.085510	0.089086	1513.760986
2927.848776	0.085496	0.089086	1590.364990
2927.849674	0.085419	0.089086	1667.071045
2927.850560	0.085448	0.089086	1742.777954
2927.851510	0.085488	0.089086	1823.991821
2928.819171	1.073020	0.095479	489.297180
2928.820079	0.617714	0.095479	1050.181152
2928.820962	0.088748	0.095479	1128.545288
2928.821916	0.085382	0.095479	1209.999756
2928.822812	0.085411	0.095479	1286.528320
2928.823706	0.085400	0.095479	1362.876221
2928.824641	0.085463	0.095479	1442.783813
2928.825551	0.085419	0.095479	1520.514893
2928.826463	0.085430	0.095479	1598.426758
2928.827355	0.085433	0.095479	1674.633301
2928.828306	0.085507	0.095479	1755.950073
2928.829209	0.085455	0.095479	1833.116211
2929.908704	1.065505	0.088530	480.542938
2929.909612	0.615703	0.088530	1039.601440
2929.910506	0.088623	0.088530	1118.830444
2929.911442	0.085349	0.088530	1198.717285
2929.912362	0.085397	0.088530	1277.282227
2929.913261	0.085455	0.088530	1354.106567
2929.914149	0.085393	0.088530	1429.935669
2929.915110	0.085492	0.088530	1512.093384
2929.916015	0.085408	0.088530	1589.387329
2929.916904	0.085338	0.088530	1665.252930
2929.917831	0.085419	0.088530	1744.436035
2929.918736	0.085426	0.088530	1821.746582
2930.886599	1.044829	0.097747	456.590332
2930.887574	0.564792	0.097747	1007.263000
2930.888485	0.087415	0.097747	1086.897705
2930.889386	0.085334	0.097747	1163.784058
2930.890271	0.085367	0.097747	1239.334229
2930.891217	0.085455	0.097747	1320.174927
2930.892126	0.085419	0.097747	1397.820557
2930.893019	0.085408	0.097747	1474.089600
2930.893951	0.085378	0.097747	1553.662231
2930.894863	0.085496	0.097747	1631.634277
2930.895761	0.085371	0.097747	1708.297485
2930.896659	0.085393	0.097747	1784.980469
2931.975386	1.060206	0.088111	479.213257
2931.976291	0.633267	0.088111	1052.319580
2931.977234	0.088942	0.088111	1136.191528
2931.978138	0.085499	0.088111	1213.482910
2931.979034	0.085426	0.088111	1290.024658
2931.979922	0.085503	0.088111	1365.951294
2931.980869	0.085521	0.088111	1446.939941
2931.981775	0.085529	0.088111	1524.428833
2931.982673	0.085466	0.088111	1601.177612
2931.983562	0.085419	0.088111	1677.114868
2931.984494	0.085510	0.088111	1756.810425
2931.985400	0.085441	0.088111	1834.219727
2932.951501	1.049766	0.097525	462.946625
2932.952406	0.652866	0.097525	1053.790527
2932.953296	0.089359	0.097525	1133.320190
2932.954263	0.085459	0.097525	1215.958984
2932.955169	0.085426	0.097525	1293.354980
2932.956065	0.085360	0.097525	1369.837646
2932.956967	0.085444	0.097525	1446.908447
2932.957890	0.085466	0.097525	1525.793823
2932.958797	0.085309	0.097525	1603.168945
2932.959686	0.085408	0.097525	1679.096436
2932.960617	0.085433	0.097525	1758.634888
2932.961522	0.085448	0.097525	1835.965332
2934.042072	1.069530	0.087072	486.636169
2934.042971	0.633325	0.087072	1055.995605
2934.043904	0.088495	0.087072	1138.561279
2934.044804	0.085367	0.087072	1215.391968
2934.045704	0.085342	0.087072	1292.199585
2934.046589	0.085397	0.087072	1367.775635
2934.047529	0.085356	0.087072	1448.010742
2934.048429	0.085386	0.087072	1524.857910
2934.049329	0.085411	0.087072	1601.728149
2934.050257	0.085360	0.087072	1680.942383
2934.051170	0.085411	0.087072	1758.922974
2934.052073	0.085338	0.087072	1835.983276
2935.018207	1.064557	0.096961	473.727783
2935.019127	0.604171	0.096961	1029.565186
2935.020055	0.087733	0.096961	1110.981567
2935.020942	0.085386	0.096961	1186.718750
2935.021893	0.085452	0.096961	1267.983276
2935.022786	0.085430	0.096961	1344.271973
2935.023675	0.085441	0.096961	1420.228760
2935.024619	0.085437	0.096961	1500.881348
2935.025512	0.085433	0.096961	1577.173340
2935.026429	0.085375	0.096961	1655.462036
2935.027326	0.085430	0.096961	1732.092407
2935.028259	0.085536	0.096961	1811.897339
2936.108511	1.067340	0.087458	486.707062
2936.109411	0.630040	0.087458	1053.743286
2936.110356	0.088477	0.087458	1137.353638
2936.111255	0.085455	0.087458	1214.177979
2936.112158	0.085433	0.087458	1291.324341
2936.113046	0.085459	0.087458	1367.211914
2936.113996	0.085499	0.087458	1448.436279
2936.114908	0.085463	0.087458	1526.378174
2936.115807	0.085400	0.087458	1603.153076
2936.116729	0.085415	0.087458	1681.905762
2936.117638	0.085543	0.087458	1759.664551
2936.118551	0.085437	0.087458	1837.668579
2937.084651	1.090474	0.097586	515.794006
2937.085561	0.593273	0.097586	1055.672119
2937.086445	0.088381	0.097586	1133.801270
2937.087409	0.085433	0.097586	1216.159058
2937.088309	0.085367	0.097586	1292.989746
2937.089207	0.085441	0.097586	1369.715454
2937.090149	0.085540	0.097586	1450.293701
2937.091058	0.085525	0.097586	1528.035889
2937.091961	0.085448	0.097586	1605.195435
2937.092850	0.085397	0.097586	1681.113159
2937.093797	0.085510	0.097586	1762.091309
2937.094698	0.085415	0.097586	1839.050293
2938.171603	1.056237	0.088409	472.137756
2938.172503	0.646794	0.088409	1054.252686
2938.173438	0.088942	0.088409	1137.413086
2938.174342	0.085466	0.088409	1214.674683
2938.175237	0.085353	0.088409	1291.065430
2938.176122	0.085444	0.088409	1366.683716
2938.177056	0.085452	0.088409	1446.495605
2938.177957	0.085455	0.088409	1523.490845
2938.178862	0.085430	0.088409	1600.804687
2938.179770	0.085448	0.088409	1678.391479
2938.180695	0.085518	0.088409	1757.495239
2938.181608	0.085481	0.088409	1835.539307
2939.154139	1.060419	0.097916	471.886292
2939.155034	0.653610	0.097916	1056.866943
2939.155929	0.089308	0.097916	1136.797485
2939.156870	0.085371	0.097916	1217.131714
2939.157773	0.085481	0.097916	1294.321045
2939.158674	0.085441	0.097916	1371.303101
2939.159561	0.085466	0.097916	1447.111694
2939.160522	0.085477	0.097916	1529.255371
2939.161431	0.085433	0.097916	1606.914307
2939.162323	0.085459	0.097916	1683.143677
2939.163265	0.085536	0.097916	1763.718506
2939.164165	0.085496	0.097916	1840.664551
2940.236253	1.055728	0.086576	484.578979
2940.237207	0.540256	0.086576	999.983521
2940.238117	0.087462	0.086576	1079.574097
2940.239006	0.085408	0.086576	1155.501587
2940.239951	0.085496	0.086576	1236.294922
2940.240847	0.085499	0.086576	1312.902222
2940.241740	0.085481	0.086576	1389.236694
2940.242629	0.085422	0.086576	1465.177124
2940.243561	0.085481	0.086576	1544.845337
2940.244469	0.085459	0.086576	1622.442139
2940.245365	0.085430	0.086576	1698.987183
2940.246295	0.085496	0.086576	1778.498047
2941.224403	1.053739	0.098190	472.075104
2941.225307	0.639521	0.098190	1050.202515
2941.226239	0.089099	0.098190	1133.242920
2941.227145	0.085408	0.098190	1210.622314
2941.228054	0.085386	0.098190	1288.237915
2941.228947	0.085455	0.098190	1364.549561
2941.229875	0.085481	0.098190	1443.875854
2941.230783	0.085499	0.098190	1521.509155
2941.231685	0.085430	0.098190	1598.566772
2941.232577	0.085444	0.098190	1674.783081
2941.233522	0.085503	0.098190	1755.583374
2941.234428	0.085455	0.098190	1833.005859
2942.299336	1.041592	0.086250	452.050812
2942.300270	0.640946	0.086250	1050.694458
2942.301210	0.087623	0.086250	1133.060303
2942.302109	0.085400	0.086250	1209.835205
2942.302996	0.085507	0.086250	1285.679565
2942.303941	0.085459	0.086250	1366.438354
2942.304850	0.085452	0.086250	1444.113892
2942.305767	0.085536	0.086250	1522.550293
2942.306659	0.085496	0.086250	1598.812378
2942.307601	0.085540	0.086250	1679.390625
2942.308491	0.085452	0.086250	1755.442627
2942.309383	0.085459	0.086250	1831.671997
2943.295687	1.045485	0.097711	457.922272
2943.296653	0.558234	0.097711	997.175903
2943.297562	0.087711	0.097711	1076.905396
2943.298459	0.085444	0.097711	1153.548950
2943.299388	0.085507	0.097711	1232.984619
2943.300292	0.085499	0.097711	1310.276001
2943.301201	0.085477	0.097711	1387.974854
2943.302096	0.085525	0.097711	1464.519653
2943.303036	0.085536	0.097711	1544.923340
2943.303938	0.085576	0.097711	1622.113037
2943.304834	0.085474	0.097711	1698.697388
2943.305717	0.085400	0.097711	1774.105957
2944.360166	1.079304	0.087720	493.242035
2944.361096	0.577240	0.087720	1030.075195
2944.361999	0.087803	0.087720	1109.361084
2944.362893	0.085404	0.087720	1185.712280
2944.363840	0.085492	0.087720	1266.673096
2944.364748	0.085441	0.087720	1344.253174
2944.365637	0.085433	0.087720	1420.203369
2944.366585	0.085587	0.087720	1501.339966
2944.367492	0.085444	0.087720	1578.838013
2944.368388	0.085415	0.087720	1655.369873
2944.369273	0.085426	0.087720	1730.971924
2944.370205	0.085488	0.087720	1810.646973
2945.366477	1.062352	0.096728	470.622070
2945.367478	0.523502	0.096728	994.647766
2945.368371	0.087052	0.096728	1072.385254
2945.369259	0.085389	0.096728	1148.211060
2945.370196	0.085411	0.096728	1228.241577
2945.371095	0.085400	0.096728	1305.016479
2945.372013	0.085415	0.096728	1383.427490
2945.372907	0.085404	0.096728	1459.778687
2945.373862	0.085514	0.096728	1541.444458
2945.374762	0.085382	0.096728	1618.288330
2945.375688	0.085433	0.096728	1697.399658
2945.376577	0.085349	0.096728	1773.275024
2946.421448	1.035267	0.088478	447.235504
2946.422389	0.653079	0.088478	1061.782471
2946.423299	0.088334	0.088478	1142.166138
2946.424217	0.085386	0.088478	1220.550293
2946.425111	0.085382	0.088478	1296.881836
2946.426045	0.085433	0.088478	1376.676636
2946.426938	0.085437	0.088478	1452.971924
2946.427841	0.085294	0.088478	1529.992554
2946.428730	0.085367	0.088478	1605.884155
2946.429678	0.085455	0.088478	1686.895752
2946.430587	0.085345	0.088478	1764.474731
2946.431487	0.085422	0.088478	1841.354858
2947.437009	1.050941	0.095459	461.363190
2947.437920	0.643605	0.095459	1047.687012
2947.438810	0.089110	0.095459	1126.994995
2947.439772	0.085430	0.095459	1209.178345
2947.440676	0.085349	0.095459	1286.333984
2947.441570	0.085397	0.095459	1362.678711
2947.442455	0.085400	0.095459	1438.258057
2947.443406	0.085422	0.095459	1519.494751
2947.444298	0.085378	0.095459	1595.652344
2947.445190	0.085389	0.095459	1671.819702
2947.446118	0.085481	0.095459	1751.145996
2947.447027	0.085463	0.095459	1828.831543
2948.484827	1.057577	0.089106	475.909607
2948.485728	0.643334	0.089106	1055.553223
2948.486613	0.089213	0.089106	1134.506470
2948.487572	0.085316	0.089106	1216.324707
2948.488493	0.085371	0.089106	1294.951538
2948.489389	0.085386	0.089106	1371.457153
2948.490349	0.085411	0.089106	1453.452026
2948.491250	0.085386	0.089106	1530.384521
2948.492176	0.085393	0.089106	1609.458496
2948.493064	0.085444	0.089106	1685.333008
2948.494023	0.085422	0.089106	1767.253052
2948.494925	0.085437	0.089106	1844.317261
2949.507087	1.118789	0.095535	563.869690
2949.508001	0.534719	0.095535	1052.603027
2949.508924	0.086990	0.095535	1132.894531
2949.509823	0.085349	0.095535	1209.623413
2949.510777	0.085400	0.095535	1291.095337
2949.511695	0.085389	0.095535	1369.482788
2949.512583	0.085433	0.095535	1445.347656
2949.513517	0.085448	0.095535	1525.156128
2949.514427	0.085327	0.095535	1602.803833
2949.515351	0.085360	0.095535	1681.676514
2949.516242	0.085367	0.095535	1757.738892
2949.517200	0.085375	0.095535	1839.527954
2950.547942	1.066725	0.091954	482.159607
2950.548852	0.618182	0.091954	1044.705566
2950.549740	0.088770	0.091954	1123.532959
2950.550670	0.085309	0.091954	1202.870117
2950.551605	0.085334	0.091954	1282.657837
2950.552520	0.085415	0.091954	1360.812622
2950.553419	0.085397	0.091954	1437.584229
2950.554367	0.085367	0.091954	1518.512573
2950.555303	0.085378	0.091954	1598.426758
2950.556201	0.085452	0.091954	1675.162354
2950.557116	0.085463	0.091954	1753.360718
2950.558047	0.085302	0.091954	1832.776367
2951.577804	1.052820	0.094363	466.399200
2951.578700	0.639573	0.094363	1039.456421
2951.579679	0.087382	0.094363	1125.003052
2951.580587	0.085276	0.094363	1202.433594
2951.581477	0.085367	0.094363	1278.410645
2951.582414	0.085433	0.094363	1358.461670
2951.583320	0.085364	0.094363	1435.801270
2951.584215	0.085426	0.094363	1512.257568
2951.585104	0.085411	0.094363	1588.188232
2951.586034	0.085463	0.094363	1667.668457
2951.586949	0.085408	0.094363	1745.816528
2951.587849	0.085378	0.094363	1822.657104
2952.612834	1.074012	0.092901	487.601624
2952.613738	0.627301	0.092901	1054.681763
2952.614626	0.088905	0.092901	1133.629395
2952.615589	0.085496	0.092901	1215.961670
2952.616484	0.085430	0.092901	1292.421265
2952.617382	0.085455	0.092901	1369.160156
2952.618271	0.085404	0.092901	1445.084351
2952.619230	0.085477	0.092901	1527.057129
2952.620140	0.085371	0.092901	1604.744873
2952.621035	0.085430	0.092901	1681.204468
2952.621961	0.085441	0.092901	1760.322510
2952.622862	0.085492	0.092901	1837.350708
2953.645539	1.078389	0.094504	491.745239
2953.646470	0.587395	0.094504	1038.609985
2953.647373	0.088000	0.094504	1118.074463
2953.648289	0.085408	0.094504	1196.307983
2953.649197	0.085477	0.094504	1273.921387
2953.650099	0.085463	0.094504	1351.008667
2953.650988	0.085411	0.094504	1426.939331
2953.651919	0.085444	0.094504	1506.488037
2953.652826	0.085444	0.094504	1583.986084
2953.653725	0.085404	0.094504	1660.764282
2953.654612	0.085375	0.094504	1736.491699
2953.655558	0.085470	0.094504	1817.346313
2954.678275	1.070226	0.094057	528.691589
2954.679203	0.529438	0.094057	1020.010498
2954.680105	0.087275	0.094057	1098.732910
2954.680997	0.085375	0.094057	1174.887207
2954.681958	0.085481	0.094057	1257.034424
2954.682863	0.085411	0.094057	1334.331665
2954.683769	0.085430	0.094057	1411.730957
2954.684658	0.085470	0.094057	1487.713745
2954.685604	0.085459	0.094057	1568.557983
2954.686503	0.085353	0.094057	1645.290161
2954.687393	0.085470	0.094057	1721.358398
2954.688327	0.085378	0.094057	1801.101807
2955.713740	1.052098	0.093565	465.027496
2955.714637	0.634351	0.093565	1034.039917
2955.715618	0.087316	0.093565	1119.696533
2955.716531	0.085334	0.093565	1197.606934
2955.717424	0.085382	0.093565	1273.853149
2955.718358	0.085422	0.093565	1353.637695
2955.719264	0.085408	0.093565	1431.017090
2955.720162	0.085400	0.093565	1507.706665
2955.721055	0.085433	0.093565	1583.998657
2955.721992	0.085422	0.093565	1664.039429
2955.722892	0.085389	0.093565	1740.889893
2955.723793	0.085415	0.093565	1817.848877
2956.743884	1.044210	0.093783	457.364075
2956.744838	0.604208	0.093783	1033.778320
2956.745753	0.087733	0.093783	1114.054199
2956.746659	0.085463	0.093783	1191.483398
2956.747546	0.085455	0.093783	1267.282227
2956.748488	0.085488	0.093783	1347.812134
2956.749390	0.085492	0.093783	1424.925903
2956.750287	0.085441	0.093783	1501.566162
2956.751175	0.085364	0.093783	1577.369141
2956.752124	0.085518	0.093783	1658.525269
2956.753039	0.085426	0.093783	1736.690063
2956.753934	0.085488	0.093783	1813.202026
2957.780680	1.042830	0.092381	454.673676
2957.781652	0.552334	0.092381	991.542236
2957.782566	0.087491	0.092381	1071.509399
2957.783476	0.085477	0.092381	1149.293701
2957.784367	0.085525	0.092381	1225.496338
2957.785322	0.085562	0.092381	1307.207642
2957.786226	0.085488	0.092381	1384.489014
2957.787120	0.085532	0.092381	1460.954834
2957.788053	0.085492	0.092381	1540.718872
2957.788952	0.085496	0.092381	1617.579468
2957.789847	0.085477	0.092381	1694.081665
2957.790732	0.085474	0.092381	1769.725830
2958.811084	1.043610	0.093038	453.970184
2958.812018	0.641385	0.093038	1053.024292
2958.812949	0.087686	0.093038	1134.659546
2958.813848	0.085309	0.093038	1211.352173
2958.814772	0.085426	0.093038	1290.285767
2958.815662	0.085386	0.093038	1366.279053
2958.816617	0.085470	0.093038	1447.902832
2958.817536	0.085455	0.093038	1526.436279
2958.818421	0.085488	0.093038	1602.093384
2958.819379	0.085411	0.093038	1683.917480
2958.820276	0.085411	0.093038	1760.531494
2958.821163	0.085474	0.093038	1836.346558
2959.847631	1.049099	0.091555	465.799988
2959.848605	0.555520	0.091555	1006.876465
2959.849508	0.087524	0.091555	1085.911011
2959.850407	0.085419	0.091555	1162.702393
2959.851296	0.085470	0.091555	1238.685181
2959.852243	0.085507	0.091555	1319.659912
2959.853147	0.085466	0.091555	1396.921509
2959.854034	0.085492	0.091555	1472.752930
2959.854966	0.085532	0.091555	1552.468994
2959.855871	0.085437	0.091555	1629.789551
2959.856765	0.085444	0.091555	1706.176758
2959.857651	0.085430	0.091555	1781.867432
2960.877264	1.047341	0.092627	460.830139
2960.878232	0.557593	0.092627	1000.579956
2960.879145	0.087686	0.092627	1080.636841
2960.880035	0.085367	0.092627	1156.613892
2960.880978	0.085378	0.092627	1237.125732
2960.881880	0.085455	0.092627	1314.206421
2960.882788	0.085419	0.092627	1391.766602
2960.883686	0.085437	0.092627	1468.489014
2960.884619	0.085411	0.092627	1548.177856
2960.885524	0.085422	0.092627	1625.485107
2960.886431	0.085393	0.092627	1702.936646
2960.887318	0.085356	0.092627	1778.647827
2961.914052	1.036904	0.091201	448.979584
2961.915003	0.636654	0.091201	1054.437622
2961.915929	0.087513	0.091201	1135.475098
2961.916834	0.085342	0.091201	1212.709473
2961.917725	0.085331	0.091201	1288.739258
2961.918681	0.085411	0.091201	1370.392578
2961.919586	0.085371	0.091201	1447.653442
2961.920503	0.085375	0.091201	1525.942139
2961.921389	0.085404	0.091201	1601.610107
2961.922339	0.085430	0.091201	1682.768311
2961.923247	0.085338	0.091201	1760.255371
2961.924138	0.085367	0.091201	1836.317749
2962.942939	1.058269	0.092607	475.162842
2962.943846	0.636478	0.092607	1052.448730
2962.944732	0.089147	0.092607	1131.432739
2962.945684	0.085389	0.092607	1212.723389
2962.946594	0.085470	0.092607	1290.501099
2962.947487	0.085503	0.092607	1366.855225
2962.948425	0.085459	0.092607	1447.015747
2962.949332	0.085463	0.092607	1524.530396
2962.950250	0.085408	0.092607	1602.934692
2962.951141	0.085430	0.092607	1679.052490
2962.952097	0.085518	0.092607	1760.807251
2962.953002	0.085463	0.092607	1838.151001
2963.980490	1.055420	0.091390	463.329346
2963.981468	0.546365	0.091390	997.674072
2963.982374	0.087532	0.091390	1076.977783
2963.983265	0.085397	0.091390	1153.066284
2963.984211	0.085426	0.091390	1233.879272
2963.985107	0.085503	0.091390	1310.489868
2963.986014	0.085397	0.091390	1387.944702
2963.986899	0.085452	0.091390	1463.569458
2963.987850	0.085430	0.091390	1544.813110
2963.988754	0.085419	0.091390	1622.031616
2963.989649	0.085408	0.091390	1698.471558
2963.990571	0.085455	0.091390	1777.261353
2965.010119	1.045671	0.091785	456.958374
2965.011102	0.533298	0.091785	981.190674
2965.012007	0.087429	0.091785	1060.314087
2965.012898	0.085389	0.091785	1136.395996
2965.013813	0.085452	0.091785	1214.584229
2965.014727	0.085481	0.091785	1292.713867
2965.015626	0.085408	0.091785	1369.495361
2965.016528	0.085411	0.091785	1446.536377
2965.017456	0.085452	0.091785	1525.835449
2965.018361	0.085466	0.091785	1603.182495
2965.019258	0.085422	0.091785	1679.806396
2965.020145	0.085411	0.091785	1755.566284
2966.044930	1.107264	0.090878	548.095886
2966.045850	0.545237	0.090878	1049.713745
2966.046771	0.087114	0.090878	1129.945923
2966.047661	0.085342	0.090878	1205.900146
2966.048619	0.085400	0.090878	1287.713745
2966.049522	0.085364	0.090878	1364.797241
2966.050413	0.085426	0.090878	1440.911865
2966.051346	0.085466	0.090878	1520.651978
2966.052262	0.085397	0.090878	1598.875366
2966.053156	0.085419	0.090878	1675.239746
2966.054047	0.085437	0.090878	1751.364136
2966.054936	0.085378	0.090878	1827.265503
2967.077059	1.040314	0.090766	451.496155
2967.078027	0.595873	0.090766	1028.301025
2967.078941	0.087502	0.090766	1108.278320
2967.079871	0.085320	0.090766	1187.625732
2967.080763	0.085400	0.090766	1263.802856
2967.081714	0.085400	0.090766	1345.018677
2967.082613	0.085382	0.090766	1421.777222
2967.083522	0.085419	0.090766	1499.422852
2967.084423	0.085375	0.090766	1576.345459
2967.085375	0.085269	0.090766	1657.521118
2967.086279	0.085302	0.090766	1734.633667
2967.087167	0.085466	0.090766	1810.527710
2968.110048	1.065707	0.090045	483.830841
2968.110940	0.642938	0.090045	1057.331787
2968.111879	0.088290	0.090045	1140.235840
2968.112783	0.085353	0.090045	1217.394775
2968.113702	0.085404	0.090045	1295.881104
2968.114595	0.085415	0.090045	1372.156738
2968.115553	0.085408	0.090045	1453.977295
2968.116479	0.085375	0.090045	1533.034302
2968.117366	0.085386	0.090045	1608.771484
2968.118322	0.085397	0.090045	1690.410767
2968.119217	0.085356	0.090045	1766.804810
2968.120140	0.085386	0.090045	1845.615845
2969.144260	1.041519	0.089175	453.060577
2969.145231	0.556161	0.089175	993.092773
2969.146150	0.087360	0.089175	1073.376221
2969.147073	0.085367	0.089175	1152.170410
2969.147960	0.085466	0.089175	1227.979004
2969.148923	0.085382	0.089175	1310.201904
2969.149848	0.085422	0.089175	1389.217529
2969.150737	0.085437	0.089175	1465.171021
2969.151682	0.085386	0.089175	1545.860596
2969.152582	0.085444	0.089175	1622.760498
2969.153493	0.085463	0.089175	1700.616943
2969.154387	0.085441	0.089175	1777.000854
2970.175446	1.050245	0.092586	469.459656
2970.176342	0.651705	0.092586	1053.387695
2970.177273	0.089235	0.092586	1136.465088
2970.178184	0.085367	0.092586	1214.234863
2970.179081	0.085415	0.092586	1290.852173
2970.179971	0.085441	0.092586	1366.894409
2970.180913	0.085514	0.092586	1447.448486
2970.181825	0.085441	0.092586	1525.370361
2970.182730	0.085415	0.092586	1602.671021
2970.183622	0.085448	0.092586	1678.890625
2970.184573	0.085510	0.092586	1760.210937
2970.185477	0.085437	0.092586	1837.446045
2971.213255	1.043610	0.090673	455.013794
2971.214227	0.548672	0.090673	988.322815
2971.215142	0.087418	0.090673	1068.310425
2971.216034	0.085360	0.090673	1144.451660
2971.216952	0.085477	0.090673	1222.919800
2971.217877	0.085466	0.090673	1301.976074
2971.218780	0.085459	0.090673	1379.145508
2971.219669	0.085441	0.090673	1455.102295
2971.220617	0.085514	0.090673	1536.169434
2971.221519	0.085455	0.090673	1613.250122
2971.222416	0.085485	0.090673	1689.929810
2971.223303	0.085459	0.090673	1765.731934
2972.239049	1.039266	0.094182	452.080872
2972.239992	0.611213	0.094182	1028.455078
2972.240893	0.088363	0.094182	1108.070190
2972.241789	0.085364	0.094182	1184.556152
2972.242679	0.085426	0.094182	1260.585327
2972.243617	0.085518	0.094182	1340.800781
2972.244517	0.085507	0.094182	1417.756714
2972.245423	0.085470	0.094182	1495.192505
2972.246310	0.085485	0.094182	1571.017334
2972.247253	0.085576	0.094182	1651.715698
2972.248158	0.085463	0.094182	1729.059448
2972.249056	0.085426	0.094182	1805.771973
2973.282267	1.057130	0.088558	480.994202
2973.283200	0.590021	0.088558	1031.483521
2973.284095	0.088055	0.088558	1110.293091
2973.285040	0.085287	0.088558	1190.889160
2973.285960	0.085367	0.088558	1269.427246
2973.286855	0.085415	0.088558	1345.873657
2973.287779	0.085345	0.088558	1424.732910
2973.288700	0.085364	0.088558	1503.352905
2973.289619	0.085371	0.088558	1581.808960
2973.290507	0.085426	0.088558	1657.667236
2973.291466	0.085386	0.088558	1739.552124
2973.292370	0.085375	0.088558	1816.730957
2974.302167	1.050209	0.095596	463.142029
2974.303068	0.642272	0.095596	1041.828857
2974.304031	0.087517	0.095596	1126.107788
2974.304936	0.085291	0.095596	1203.295654
2974.305826	0.085360	0.095596	1279.266113
2974.306768	0.085496	0.095596	1359.802979
2974.307674	0.085470	0.095596	1437.238770
2974.308566	0.085382	0.095596	1513.399536
2974.309451	0.085356	0.095596	1588.939941
2974.310390	0.085510	0.095596	1669.234131
2974.311303	0.085393	0.095596	1747.197998
2974.312205	0.085349	0.095596	1824.182861
2975.352518	1.048465	0.087450	458.179413
2975.353509	0.523099	0.087450	976.570923
2975.354417	0.087268	0.087450	1055.810303
2975.355313	0.085400	0.087450	1132.329102
2975.356246	0.085437	0.087450	1212.041870
2975.357148	0.085426	0.087450	1289.096191
2975.358049	0.085430	0.087450	1366.068359
2975.358937	0.085400	0.087450	1441.903931
2975.359859	0.085466	0.087450	1520.703857
2975.360764	0.085525	0.087450	1598.103882
2975.361667	0.085375	0.087450	1675.197266
2975.362555	0.085389	0.087450	1751.023071
2976.363979	1.049165	0.095841	461.632660
2976.364890	0.643806	0.095841	1048.140015
2976.365780	0.089216	0.095841	1127.542480
2976.366757	0.085426	0.095841	1211.003662
2976.367662	0.085430	0.095841	1288.317505
2976.368560	0.085422	0.095841	1365.026733
2976.369493	0.085474	0.095841	1444.773682
2976.370390	0.085540	0.095841	1521.502686
2976.371294	0.085430	0.095841	1598.731079
2976.372183	0.085400	0.095841	1674.651978
2976.373132	0.085463	0.095841	1755.755981
2976.374038	0.085496	0.095841	1833.214966
2977.424094	1.067692	0.085497	483.664276
2977.424994	0.635076	0.085497	1055.232422
2977.425932	0.088934	0.085497	1138.652832
2977.426852	0.085488	0.085497	1217.302002
2977.427757	0.085444	0.085497	1294.629150
2977.428656	0.085419	0.085497	1371.420532
2977.429586	0.085481	0.085497	1450.917847
2977.430493	0.085415	0.085497	1528.389282
2977.431399	0.085455	0.085497	1605.811768
2977.432285	0.085386	0.085497	1681.463501
2977.433226	0.085466	0.085497	1761.887329
2977.434137	0.085441	0.085497	1839.723755
2978.425298	1.047231	0.096389	463.923523
2978.426252	0.573373	0.096389	1010.921143
2978.427158	0.087872	0.096389	1090.533447
2978.428060	0.085437	0.096389	1167.597656
2978.428948	0.085444	0.096389	1243.472168
2978.429881	0.085455	0.096389	1323.202026
2978.430789	0.085345	0.096389	1400.695679
2978.431686	0.085422	0.096389	1477.319580
2978.432627	0.085433	0.096389	1557.712402
2978.433534	0.085485	0.096389	1635.246948
2978.434429	0.085422	0.096389	1711.699951
2978.435314	0.085422	0.096389	1787.298706
2979.494862	1.048103	0.086008	461.165314
2979.495824	0.615846	0.086008	1053.609131
2979.496725	0.087839	0.086008	1132.752441
2979.497617	0.085360	0.086008	1208.893677
2979.498505	0.085444	0.086008	1284.768311
2979.499441	0.085441	0.086008	1364.740723
2979.500347	0.085466	0.086008	1442.173218
2979.501252	0.085463	0.086008	1519.516968
2979.502140	0.085433	0.086008	1595.381836
2979.503090	0.085496	0.086008	1676.602661
2979.503997	0.085507	0.086008	1754.157104
2979.504890	0.085389	0.086008	1830.409790
2980.489224	1.104756	0.096748	555.692200
2980.490150	0.528289	0.096748	1044.887451
2980.491051	0.087316	0.096748	1123.558838
2980.491938	0.085367	0.096748	1199.279785
2980.492880	0.085496	0.096748	1279.816650
2980.493786	0.085430	0.096748	1357.215942
2980.494681	0.085430	0.096748	1433.675537
2980.495599	0.085441	0.096748	1512.110107
2980.496531	0.085503	0.096748	1591.798828
2980.497440	0.085393	0.096748	1669.421143
2980.498342	0.085397	0.096748	1746.448975
2980.499282	0.085481	0.096748	1826.801025
2981.565904	1.054193	0.084828	469.115936
2981.566881	0.538590	0.084828	995.318481
2981.567781	0.087488	0.084828	1074.057495
2981.568699	0.085393	0.084828	1152.448364
2981.569587	0.085466	0.084828	1228.342407
2981.570534	0.085415	0.084828	1309.230469
2981.571434	0.085426	0.084828	1386.113892
2981.572326	0.085433	0.084828	1462.320435
2981.573265	0.085470	0.084828	1542.576782
2981.574168	0.085393	0.084828	1619.686768
2981.575087	0.085430	0.084828	1698.196655
2981.575976	0.085353	0.084828	1774.075317
2982.551254	1.053706	0.097441	472.060303
2982.552154	0.644363	0.097441	1051.986816
2982.553094	0.089257	0.097441	1135.888062
2982.554003	0.085393	0.097441	1213.510376
2982.554925	0.085463	0.097441	1292.306885
2982.555813	0.085481	0.097441	1368.213989
2982.556750	0.085499	0.097441	1448.326782
2982.557649	0.085459	0.097441	1525.154419
2982.558561	0.085514	0.097441	1603.143066
2982.559454	0.085503	0.097441	1679.497192
2982.560408	0.085521	0.097441	1761.084473
2982.561312	0.085470	0.097441	1838.349365
2983.635412	1.050073	0.086282	462.032227
2983.636369	0.612861	0.086282	1048.540527
2983.637275	0.087847	0.086282	1128.129639
2983.638189	0.085397	0.086282	1206.182251
2983.639084	0.085433	0.086282	1282.645142
2983.640029	0.085503	0.086282	1363.445435
2983.640937	0.085463	0.086282	1441.045532
2983.641869	0.085477	0.086282	1520.710327
2983.642767	0.085496	0.086282	1597.485352
2983.643726	0.085411	0.086282	1679.394897
2983.644627	0.085477	0.086282	1756.409912
2983.645515	0.085455	0.086282	1832.294189
2984.615130	1.048773	0.097473	465.655273
2984.616035	0.637819	0.097473	1042.881104
2984.616959	0.089041	0.097473	1125.154541
2984.617898	0.085433	0.097473	1205.376465
2984.618813	0.085448	0.097473	1283.561401
2984.619704	0.085448	0.097473	1359.695557
2984.620659	0.085481	0.097473	1441.329834
2984.621600	0.085481	0.097473	1521.767456
2984.622500	0.085455	0.097473	1598.677246
2984.623436	0.085496	0.097473	1678.701172
2984.624345	0.085485	0.097473	1756.406738
2984.625280	0.085404	0.097473	1836.259521
2985.704430	1.096318	0.084473	514.173340
2985.705409	0.507938	0.084473	1011.444824
2985.706320	0.086792	0.084473	1090.512329
2985.707214	0.085371	0.084473	1166.834106
2985.708156	0.085367	0.084473	1247.250244
2985.709096	0.085441	0.084473	1327.564453
2985.709998	0.085455	0.084473	1404.645142
2985.710914	0.085342	0.084473	1482.818237
2985.711851	0.085455	0.084473	1562.889893
2985.712781	0.085422	0.084473	1642.332642
2985.713680	0.085496	0.084473	1719.193237
2985.714610	0.085444	0.084473	1798.656494
2986.680022	1.056504	0.096695	473.313751
2986.680931	0.633274	0.096695	1048.959839
2986.681880	0.088784	0.096695	1133.216064
2986.682780	0.085492	0.096695	1210.158813
2986.683677	0.085499	0.096695	1286.851685
2986.684561	0.085452	0.096695	1362.390991
2986.685490	0.085543	0.096695	1441.860596
2986.686392	0.085518	0.096695	1518.997437
2986.687297	0.085382	0.096695	1596.268188
2986.688185	0.085499	0.096695	1672.191528
2986.689133	0.085507	0.096695	1753.251831
2986.690040	0.085422	0.096695	1830.729858
2987.770825	1.046298	0.087354	460.370911
2987.771714	0.660040	0.087354	1047.146729
2987.772675	0.087920	0.087354	1131.637817
2987.773575	0.085342	0.087354	1208.445435
2987.774465	0.085433	0.087354	1284.481079
2987.775415	0.085477	0.087354	1365.684570
2987.776319	0.085455	0.087354	1442.936157
2987.777223	0.085437	0.087354	1520.171265
2987.778115	0.085419	0.087354	1596.364746
2987.779055	0.085437	0.087354	1676.675537
2987.779965	0.085437	0.087354	1754.423218
2987.780864	0.085444	0.087354	1831.237671
2988.745419	1.048978	0.094842	459.452454
2988.746396	0.564214	0.094842	1010.689392
2988.747288	0.087686	0.094842	1088.904907
2988.748177	0.085397	0.094842	1164.822632
2988.749111	0.085441	0.094842	1244.624268
2988.750017	0.085400	0.094842	1321.997070
2988.750940	0.085364	0.094842	1400.787842
2988.751826	0.085426	0.094842	1476.475342
2988.752794	0.085411	0.094842	1559.153564
2988.753712	0.085437	0.094842	1637.584717
2988.754626	0.085470	0.094842	1715.704224
2988.755512	0.085419	0.094842	1791.385254
2989.837512	1.043280	0.086149	453.826813
2989.838456	0.639968	0.086149	1057.956787
2989.839376	0.087821	0.086149	1138.752197
2989.840285	0.085371	0.086149	1216.354492
2989.841175	0.085455	0.086149	1292.409668
2989.842120	0.085532	0.086149	1373.237671
2989.843031	0.085400	0.086149	1451.037476
2989.843922	0.085452	0.086149	1527.174927
2989.844811	0.085466	0.086149	1603.154541
2989.845752	0.085540	0.086149	1683.647217
2989.846652	0.085397	0.086149	1760.504272
2989.847541	0.085466	0.086149	1836.483887
2990.811645	1.102350	0.094552	535.742065
2990.812576	0.539484	0.094552	1038.001343
2990.813485	0.087385	0.094552	1117.434570
2990.814371	0.085419	0.094552	1193.115479
2990.815323	0.085584	0.094552	1274.590942
2990.816230	0.085408	0.094552	1352.055786
2990.817124	0.085485	0.094552	1428.479004
2990.818056	0.085514	0.094552	1508.177979
2990.818959	0.085514	0.094552	1585.397095
2990.819862	0.085441	0.094552	1662.550049
2990.820754	0.085477	0.094552	1738.795776
2990.821688	0.085507	0.094552	1818.658936
2991.903950	1.041171	0.085670	457.073944
2991.904925	0.560317	0.085670	1003.383301
2991.905822	0.087869	0.085670	1082.201538
2991.906719	0.085477	0.085670	1158.874634
2991.907608	0.085477	0.085670	1234.863892
2991.908559	0.085569	0.085670	1316.239868
2991.909475	0.085488	0.085670	1394.547119
2991.910370	0.085455	0.085670	1471.029663
2991.911295	0.085507	0.085670	1550.123291
2991.912195	0.085573	0.085670	1627.138550
2991.913091	0.085510	0.085670	1703.755737
2991.913977	0.085499	0.085670	1779.508057
2992.878547	1.059170	0.093650	469.212250
2992.879482	0.595935	0.093650	1026.411499
2992.880378	0.088228	0.093650	1105.463379
2992.881311	0.085426	0.093650	1185.165894
2992.882217	0.085510	0.093650	1262.638184
2992.883118	0.085499	0.093650	1339.672974
2992.884004	0.085474	0.093650	1415.402588
2992.884944	0.085558	0.093650	1495.827026
2992.885841	0.085499	0.093650	1572.519897
2992.886737	0.085437	0.093650	1649.071411
2992.887659	0.085444	0.093650	1727.851074
2992.888585	0.085554	0.093650	1807.074219
2993.970632	1.047286	0.087205	458.711426
2993.971584	0.581920	0.087205	1012.699402
2993.972499	0.087982	0.087205	1093.203125
2993.973399	0.085433	0.087205	1170.093140
2993.974329	0.085562	0.087205	1249.665405
2993.975240	0.085562	0.087205	1327.611938
2993.976136	0.085510	0.087205	1404.229126
2993.977027	0.085492	0.087205	1480.402466
2993.977964	0.085474	0.087205	1560.491211
2993.978869	0.085477	0.087205	1637.848145
2993.979771	0.085507	0.087205	1714.975098
2993.980658	0.085470	0.087205	1790.786987
2994.945231	1.048685	0.094371	461.421539
2994.946138	0.647021	0.094371	1048.270020
2994.947025	0.089355	0.094371	1127.528320
2994.947977	0.085397	0.094371	1208.826050
2994.948882	0.085485	0.094371	1286.189575
2994.949779	0.085408	0.094371	1362.800293
2994.950663	0.085415	0.094371	1438.307129
2994.951608	0.085521	0.094371	1519.124756
2994.952527	0.085389	0.094371	1597.597656
2994.953423	0.085433	0.094371	1674.145996
2994.954366	0.085422	0.094371	1754.699219
2994.955274	0.085536	0.094371	1832.365845
2996.037358	1.065465	0.086782	506.095917
2996.038315	0.510337	0.086782	994.488403
2996.039232	0.086876	0.086782	1074.153931
2996.040125	0.085364	0.086782	1150.383789
2996.041054	0.085540	0.086782	1229.850098
2996.041952	0.085503	0.086782	1306.631714
2996.042848	0.085400	0.086782	1383.150513
2996.043738	0.085452	0.086782	1459.202515
2996.044678	0.085481	0.086782	1539.554565
2996.045578	0.085408	0.086782	1616.421509
2996.046476	0.085411	0.086782	1693.120972
2996.047403	0.085441	0.086782	1772.324463
2997.011674	1.055852	0.092852	470.910004
2997.012575	0.646022	0.092852	1052.975586
2997.013466	0.089008	0.092852	1132.281372
2997.014399	0.085356	0.092852	1211.918945
2997.015324	0.085404	0.092852	1290.917725
2997.016231	0.085327	0.092852	1368.309448
2997.017122	0.085382	0.092852	1444.384888
2997.018061	0.085503	0.092852	1524.672119
2997.018968	0.085371	0.092852	1602.103760
2997.019864	0.085444	0.092852	1678.661865
2997.020749	0.085415	0.092852	1754.254150
2997.021695	0.085470	0.092852	1835.108765
2998.103757	1.060602	0.085758	468.786011
2998.104726	0.556003	0.085758	1007.553284
2998.105640	0.087550	0.085758	1087.573975
2998.106531	0.085389	0.085758	1163.655884
2998.107469	0.085485	0.085758	1243.840454
2998.108372	0.085474	0.085758	1321.023193
2998.109275	0.085404	0.085758	1398.143066
2998.110163	0.085433	0.085758	1474.007935
2998.111114	0.085521	0.085758	1555.338623
2998.112019	0.085386	0.085758	1632.612671
2998.112914	0.085426	0.085758	1709.068970
2998.113833	0.085459	0.085758	1787.605835
2999.077856	1.059730	0.093106	473.699432
2999.078783	0.610587	0.093106	1039.713745
2999.079672	0.088528	0.093106	1118.415039
2999.080610	0.085393	0.093106	1198.513794
2999.081505	0.085477	0.093106	1275.015991
2999.082407	0.085404	0.093106	1352.050415
2999.083299	0.085353	0.093106	1428.185059
2999.084228	0.085419	0.093106	1507.539062
2999.085128	0.085514	0.093106	1584.501587
2999.086033	0.085459	0.093106	1661.841919
2999.086924	0.085400	0.093106	1737.933716
2999.087868	0.085433	0.093106	1818.582764
3000.169935	1.049974	0.086020	463.038727
3000.170901	0.556436	0.086020	1000.555420
3000.171817	0.087568	0.086020	1080.768066
3000.172719	0.085342	0.086020	1157.746338
3000.173644	0.085382	0.086020	1236.724731
3000.174556	0.085474	0.086020	1314.676636
3000.175466	0.085364	0.086020	1392.357666
3000.176356	0.085378	0.086020	1468.344482
3000.177290	0.085411	0.086020	1548.118652
3000.178192	0.085419	0.086020	1625.166260
3000.179092	0.085397	0.086020	1702.023315
3000.179981	0.085481	0.086020	1778.015869
3001.143755	1.054428	0.094750	465.002533
3001.144733	0.537506	0.094750	990.683472
3001.145640	0.087455	0.094750	1070.005005
3001.146535	0.085360	0.094750	1146.402344
3001.147475	0.085444	0.094750	1226.719971
3001.148384	0.085360	0.094750	1304.312256
3001.149282	0.085302	0.094750	1380.912964
3001.150172	0.085375	0.094750	1456.896484
3001.151108	0.085422	0.094750	1536.851807
3001.152017	0.085441	0.094750	1614.517334
3001.152916	0.085463	0.094750	1691.348267
3001.153805	0.085444	0.094750	1767.308228
3002.236875	1.045529	0.085352	457.941498
3002.237827	0.583704	0.085352	1013.627319
3002.238732	0.088000	0.085352	1093.267700
3002.239622	0.085459	0.085352	1169.326172
3002.240545	0.085474	0.085352	1248.218384
3002.241474	0.085463	0.085352	1327.613159
3002.242377	0.085382	0.085352	1404.713135
3002.243263	0.085408	0.085352	1480.384399
3002.244214	0.085488	0.085352	1561.683716
3002.245122	0.085485	0.085352	1639.303711
3002.246016	0.085455	0.085352	1715.700806
3002.246910	0.085470	0.085352	1792.110962
3003.210696	1.054482	0.094375	460.808838
3003.211688	0.525564	0.094375	982.168274
3003.212598	0.087140	0.094375	1061.465576
3003.213490	0.085455	0.094375	1137.691772
3003.214415	0.085477	0.094375	1216.758301
3003.215334	0.085408	0.094375	1295.248047
3003.216262	0.085452	0.094375	1374.547119
3003.217150	0.085459	0.094375	1450.434692
3003.218104	0.085466	0.094375	1531.969604
3003.219004	0.085411	0.094375	1608.839844
3003.219891	0.085488	0.094375	1684.667969
3003.220799	0.085426	0.094375	1762.234863
3004.301790	1.072742	0.086105	491.315735
3004.302684	0.632864	0.086105	1057.095947
3004.303628	0.088143	0.086105	1140.303223
3004.304533	0.085422	0.086105	1217.610474
3004.305436	0.085503	0.086105	1294.819580
3004.306325	0.085474	0.086105	1370.805664
3004.307281	0.085584	0.086105	1452.623535
3004.308193	0.085463	0.086105	1530.565430
3004.309095	0.085488	0.086105	1607.675903
3004.310028	0.085529	0.086105	1687.473999
3004.310930	0.085569	0.086105	1764.657104
3004.311830	0.085485	0.086105	1841.593262
3005.276114	1.056094	0.091720	473.129974
3005.277098	0.527472	0.091720	992.162354
3005.278005	0.087297	0.091720	1071.341064
3005.278900	0.085393	0.091720	1147.767822
3005.279838	0.085507	0.091720	1227.973022
3005.280750	0.085459	0.091720	1305.911621
3005.281663	0.085444	0.091720	1383.922363
3005.282560	0.085507	0.091720	1460.621826
3005.283489	0.085455	0.091720	1540.009766
3005.284385	0.085514	0.091720	1616.630249
3005.285286	0.085463	0.091720	1693.632080
3005.286170	0.085437	0.091720	1769.158447
3006.367210	1.057002	0.083184	499.961914
3006.368172	0.515438	0.083184	995.813477
3006.369076	0.087129	0.083184	1074.578003
3006.369965	0.085400	0.083184	1150.498901
3006.370909	0.085514	0.083184	1231.223999
3006.371821	0.085430	0.083184	1309.135864
3006.372731	0.085437	0.083184	1386.883545
3006.373617	0.085518	0.083184	1462.652100
3006.374560	0.085470	0.083184	1543.250244
3006.375466	0.085466	0.083184	1620.682739
3006.376356	0.085430	0.083184	1696.715210
3006.377284	0.085503	0.083184	1776.061890
3007.346899	1.051714	0.094000	461.702362
3007.347858	0.582440	0.094000	1020.262451
3007.348756	0.087861	0.094000	1099.161865
3007.349677	0.085386	0.094000	1177.802124
3007.350561	0.085404	0.094000	1253.299316
3007.351500	0.085397	0.094000	1333.486816
3007.352427	0.085397	0.094000	1412.649536
3007.353321	0.085474	0.094000	1489.062988
3007.354225	0.085349	0.094000	1566.218628
3007.355155	0.085397	0.094000	1645.637573
3007.356080	0.085408	0.094000	1724.639648
3007.356967	0.085426	0.094000	1800.412476
3008.432340	1.048250	0.084389	464.374573
3008.433239	0.650072	0.084389	1048.789307
3008.434175	0.089194	0.084389	1132.275146
3008.435087	0.085375	0.084389	1210.136963
3008.436006	0.085393	0.084389	1288.613159
3008.436896	0.085430	0.084389	1364.645630
3008.437834	0.085411	0.084389	1444.761475
3008.438743	0.085430	0.084389	1522.416992
3008.439664	0.085474	0.084389	1601.138184
3008.440552	0.085503	0.084389	1677.064819
3008.441505	0.085415	0.084389	1758.465332
3008.442419	0.085448	0.084389	1836.564819
3009.416649	1.041240	0.094017	455.021973
3009.417543	0.656301	0.094017	1041.755371
3009.418505	0.088099	0.094017	1126.506958
3009.419449	0.085360	0.094017	1207.086914
3009.420350	0.085430	0.094017	1284.059082
3009.421269	0.085353	0.094017	1362.498291
3009.422213	0.085426	0.094017	1443.140503
3009.423134	0.085481	0.094017	1521.868408
3009.424022	0.085386	0.094017	1597.690918
3009.424969	0.085433	0.094017	1678.596313
3009.425904	0.085375	0.094017	1758.421753
3009.426802	0.085441	0.094017	1835.147461
3010.495470	1.068018	0.084929	499.832245
3010.496384	0.591167	0.084929	1040.158813
3010.497275	0.088191	0.084929	1118.736938
3010.498195	0.085356	0.084929	1197.264893
3010.499141	0.085430	0.084929	1278.081421
3010.500062	0.085393	0.084929	1356.728394
3010.500952	0.085455	0.084929	1432.783691
3010.501904	0.085378	0.084929	1514.063965
3010.502848	0.085382	0.084929	1594.664673
3010.503750	0.085371	0.084929	1671.669434
3010.504672	0.085430	0.084929	1750.435547
3010.505613	0.085444	0.084929	1830.838623
3011.486452	1.073917	0.094536	506.888947
3011.487360	0.595404	0.094536	1047.515869
3011.488300	0.088151	0.094536	1130.377441
3011.489243	0.085360	0.094536	1210.872070
3011.490168	0.085485	0.094536	1289.945312
3011.491057	0.085422	0.094536	1365.885742
3011.491985	0.085400	0.094536	1445.137329
3011.492914	0.085404	0.094536	1524.477661
3011.493821	0.085444	0.094536	1601.975708
3011.494719	0.085389	0.094536	1678.655396
3011.495665	0.085444	0.094536	1759.485718
3011.496604	0.085419	0.094536	1839.693848
3012.557282	1.068113	0.085138	487.059418
3012.558181	0.630835	0.085138	1054.180054
3012.559123	0.089088	0.085138	1138.101074
3012.560027	0.085503	0.085138	1215.395752
3012.560937	0.085404	0.085138	1293.113403
3012.561837	0.085521	0.085138	1370.082520
3012.562775	0.085518	0.085138	1450.297974
3012.563681	0.085459	0.085138	1527.723877
3012.564581	0.085477	0.085138	1604.653442
3012.565468	0.085444	0.085138	1680.442627
3012.566421	0.085591	0.085138	1762.010620
3012.567327	0.085485	0.085138	1839.459717
3013.555709	1.063001	0.094440	516.618286
3013.556634	0.553275	0.094440	1028.397705
3013.557528	0.087795	0.094440	1106.886841
3013.558414	0.085364	0.094440	1182.519165
3013.559372	0.085525	0.094440	1264.452026
3013.560267	0.085455	0.094440	1340.934570
3013.561169	0.085503	0.094440	1418.058228
3013.562060	0.085455	0.094440	1494.198975
3013.563018	0.085507	0.094440	1576.114258
3013.563928	0.085455	0.094440	1653.878662
3013.564831	0.085477	0.094440	1731.064697
3013.565762	0.085529	0.094440	1810.691772
3014.620158	1.109560	0.084119	544.794189
3014.621078	0.551144	0.084119	1051.846436
3014.622000	0.087316	0.084119	1132.351440
3014.622890	0.085364	0.084119	1208.325195
3014.623848	0.085382	0.084119	1290.121216
3014.624746	0.085397	0.084119	1366.807495
3014.625634	0.085419	0.084119	1442.659302
3014.626572	0.085477	0.084119	1522.837036
3014.627479	0.085400	0.084119	1600.295166
3014.628402	0.085419	0.084119	1679.136597
3014.629299	0.085448	0.084119	1755.783447
3014.630250	0.085481	0.084119	1837.075806
3015.626195	1.053384	0.094552	471.915955
3015.627085	0.647633	0.094552	1048.309326
3015.628045	0.088136	0.094552	1132.919922
3015.628985	0.085375	0.094552	1213.172241
3015.629884	0.085397	0.094552	1289.943848
3015.630799	0.085452	0.094552	1368.132080
3015.631737	0.085485	0.094552	1448.316650
3015.632655	0.085422	0.094552	1526.734375
3015.633552	0.085419	0.094552	1603.354980
3015.634510	0.085503	0.094552	1685.266846
3015.635439	0.085375	0.094552	1764.579956
3015.636348	0.085419	0.094552	1842.225586
3016.682218	1.073324	0.085605	494.802338
3016.683155	0.571761	0.085605	1030.542847
3016.684046	0.087993	0.085605	1108.944702
3016.684994	0.085382	0.085605	1189.886963
3016.685933	0.085411	0.085605	1270.088257
3016.686823	0.085419	0.085605	1346.110840
3016.687746	0.085459	0.085605	1424.989502
3016.688684	0.085419	0.085605	1505.112305
3016.689606	0.085378	0.085605	1583.831177
3016.690499	0.085481	0.085605	1660.165649
3016.691452	0.085404	0.085605	1741.555664
3016.692381	0.085400	0.085605	1820.892578
3017.696466	1.050297	0.092623	464.231079
3017.697369	0.653199	0.092623	1054.070190
3017.698255	0.089451	0.092623	1133.323486
3017.699201	0.085518	0.092623	1214.223145
3017.700108	0.085437	0.092623	1291.714478
3017.701007	0.085448	0.092623	1368.532227
3017.701937	0.085477	0.092623	1448.026123
3017.702841	0.085521	0.092623	1525.337280
3017.703754	0.085441	0.092623	1603.344604
3017.704648	0.085459	0.092623	1679.744995
3017.705580	0.085485	0.092623	1759.416626
3017.706486	0.085470	0.092623	1836.852417
3018.744522	1.041694	0.086504	453.137024
3018.745419	0.652720	0.086504	1038.626709
3018.746382	0.087931	0.086504	1123.304199
3018.747288	0.085349	0.086504	1200.630493
3018.748178	0.085430	0.086504	1276.662964
3018.749110	0.085562	0.086504	1356.406250
3018.750016	0.085441	0.086504	1433.815552
3018.750919	0.085411	0.086504	1510.942017
3018.751804	0.085514	0.086504	1586.621826
3018.752740	0.085463	0.086504	1666.614868
3018.753651	0.085393	0.086504	1744.407959
3018.754553	0.085437	0.086504	1821.472168
3019.766746	1.061821	0.092143	476.757782
3019.767654	0.625477	0.092143	1044.691162
3019.768544	0.088784	0.092143	1123.709106
3019.769480	0.085382	0.092143	1203.626709
3019.770387	0.085353	0.092143	1281.041626
3019.771317	0.085408	0.092143	1360.470825
3019.772205	0.085389	0.092143	1436.296631
3019.773160	0.085327	0.092143	1517.784058
3019.774051	0.085375	0.092143	1593.852905
3019.774937	0.085345	0.092143	1669.468994
3019.775848	0.085404	0.092143	1747.272095
3019.776786	0.085371	0.092143	1827.350220
3020.808907	1.042566	0.087523	453.516144
3020.809856	0.604314	0.087523	1027.010010
3020.810769	0.088008	0.087523	1107.361084
3020.811698	0.085342	0.087523	1186.643555
3020.812582	0.085397	0.087523	1262.134277
3020.813544	0.085375	0.087523	1344.264771
3020.814461	0.085364	0.087523	1422.543335
3020.815348	0.085389	0.087523	1498.283691
3020.816269	0.085360	0.087523	1576.900391
3020.817197	0.085364	0.087523	1656.117920
3020.818114	0.085389	0.087523	1734.420044
3020.819002	0.085342	0.087523	1810.203613
3021.835208	1.043108	0.090242	453.751984
3021.836157	0.635427	0.090242	1056.772461
3021.837086	0.087627	0.090242	1138.177856
3021.838003	0.085367	0.090242	1216.459839
3021.838895	0.085393	0.090242	1292.630493
3021.839840	0.085382	0.090242	1373.316528
3021.840734	0.085397	0.090242	1449.661255
3021.841655	0.085452	0.090242	1528.362183
3021.842547	0.085404	0.090242	1604.542603
3021.843492	0.085353	0.090242	1685.200928
3021.844414	0.085342	0.090242	1763.886108
3021.845309	0.085419	0.090242	1840.335815
3022.873589	1.061195	0.088494	510.434814
3022.874538	0.549646	0.088494	1032.048828
3022.875452	0.086997	0.088494	1111.564209
3022.876352	0.085400	0.088494	1188.424561
3022.877286	0.085331	0.088494	1268.123535
3022.878207	0.085371	0.088494	1346.750366
3022.879123	0.085345	0.088494	1424.926758
3022.880021	0.085397	0.088494	1501.613037
3022.880961	0.085353	0.088494	1581.844604
3022.881901	0.085305	0.088494	1662.031494
3022.882796	0.085400	0.088494	1738.464844
3022.883717	0.085389	0.088494	1817.108521
3023.904209	1.050974	0.090721	467.683502
3023.905184	0.551444	0.090721	1005.341431
3023.906086	0.087433	0.090721	1084.205811
3023.906981	0.085320	0.090721	1160.567017
3023.907894	0.085356	0.090721	1238.497437
3023.908813	0.085364	0.090721	1316.946777
3023.909725	0.085316	0.090721	1394.755127
3023.910621	0.085378	0.090721	1471.254150
3023.911555	0.085375	0.090721	1550.994141
3023.912457	0.085404	0.090721	1628.028564
3023.913352	0.085287	0.090721	1704.360352
3023.914237	0.085345	0.090721	1779.891113
3024.939219	1.056354	0.088562	467.964691
3024.940130	0.631355	0.088562	1043.129028
3024.941022	0.088909	0.088562	1122.435547
3024.941968	0.085386	0.088562	1203.210449
3024.942872	0.085360	0.088562	1280.375977
3024.943768	0.085389	0.088562	1356.884888
3024.944655	0.085408	0.088562	1432.641479
3024.945607	0.085397	0.088562	1513.939209
3024.946508	0.085400	0.088562	1590.885010
3024.947398	0.085393	0.088562	1666.884888
3024.948334	0.085452	0.088562	1746.867676
3024.949249	0.085345	0.088562	1824.958740
3025.971916	1.044587	0.089610	458.573914
3025.972895	0.559947	0.089610	1006.762512
3025.973790	0.087502	0.089610	1085.077148
3025.974712	0.085334	0.089610	1163.755493
3025.975615	0.085345	0.089610	1240.822510
3025.976560	0.085378	0.089610	1321.505127
3025.977484	0.085404	0.089610	1400.418457
3025.978373	0.085386	0.089610	1476.326416
3025.979305	0.085371	0.089610	1555.892334
3025.980226	0.085323	0.089610	1634.475220
3025.981141	0.085400	0.089610	1712.616577
3025.982029	0.085400	0.089610	1788.452148
3027.005645	1.043668	0.089992	457.126709
3027.006568	0.650021	0.089992	1057.095825
3027.007494	0.088129	0.089992	1138.703003
3027.008428	0.085364	0.089992	1218.432739
3027.009329	0.085411	0.089992	1295.388428
3027.010254	0.085364	0.089992	1374.349854
3027.011200	0.085459	0.089992	1455.194092
3027.012109	0.085404	0.089992	1532.826416
3027.013002	0.085455	0.089992	1609.138062
3027.013948	0.085404	0.089992	1689.930298
3027.014891	0.085408	0.089992	1770.469727
3027.015788	0.085430	0.089992	1847.100098
3028.038856	1.043910	0.090141	457.232544
3028.039750	0.654587	0.090141	1042.433716
3028.040719	0.088011	0.090141	1127.716797
3028.041661	0.085356	0.090141	1208.122559
3028.042555	0.085426	0.090141	1284.493408
3028.043469	0.085408	0.090141	1362.556030
3028.044405	0.085397	0.090141	1442.487305
3028.045335	0.085389	0.090141	1521.899414
3028.046227	0.085441	0.090141	1598.112549
3028.047153	0.085477	0.090141	1677.264526
3028.048058	0.085441	0.090141	1754.588379
3028.048963	0.085488	0.090141	1831.955322
3029.072081	1.049147	0.088014	461.624573
3029.073001	0.644081	0.088014	1054.178955
3029.073897	0.089202	0.088014	1134.103638
3029.074860	0.085455	0.088014	1216.397095
3029.075766	0.085411	0.088014	1293.779785
3029.076662	0.085389	0.088014	1370.288696
3029.077547	0.085455	0.088014	1445.916626
3029.078494	0.085532	0.088014	1526.915649
3029.079397	0.085433	0.088014	1604.062012
3029.080287	0.085466	0.088014	1680.127075
3029.081211	0.085441	0.088014	1759.074219
3029.082124	0.085521	0.088014	1837.155151
3030.106083	1.063147	0.088490	481.605560
3030.106992	0.625441	0.088490	1050.131226
3030.107882	0.088817	0.088490	1129.178467
3030.108819	0.085433	0.088490	1209.229492
3030.109732	0.085422	0.088490	1287.220093
3030.110654	0.085492	0.088490	1366.043701
3030.111554	0.085441	0.088490	1442.940308
3030.112503	0.085415	0.088490	1523.999146
3030.113427	0.085404	0.088490	1602.912476
3030.114322	0.085441	0.088490	1679.381836
3030.115240	0.085371	0.088490	1757.752441
3030.116187	0.085408	0.088490	1838.633545
3031.138507	1.041771	0.088248	455.254059
3031.139456	0.596646	0.088248	1021.470703
3031.140377	0.087722	0.088248	1102.262817
3031.141301	0.085367	0.088248	1181.142334
3031.142206	0.085426	0.088248	1258.452881
3031.143156	0.085415	0.088248	1339.597168
3031.144097	0.085477	0.088248	1420.031250
3031.144996	0.085411	0.088248	1496.816040
3031.145909	0.085452	0.088248	1574.833374
3031.146845	0.085386	0.088248	1654.754395
3031.147760	0.085426	0.088248	1732.919189
3031.148655	0.085430	0.088248	1809.378784
3032.172492	1.049282	0.088768	461.684174
3032.173480	0.545889	0.088768	1001.022217
3032.174401	0.087041	0.088768	1081.187012
3032.175319	0.085415	0.088768	1159.598022
3032.176204	0.085400	0.088768	1235.177368
3032.177140	0.085415	0.088768	1315.125854
3032.178069	0.085426	0.088768	1394.486572
3032.178967	0.085514	0.088768	1471.278076
3032.179889	0.085411	0.088768	1550.027344
3032.180835	0.085342	0.088768	1630.760742
3032.181747	0.085389	0.088768	1708.635864
3032.182644	0.085404	0.088768	1785.243286
3033.204957	1.064835	0.087624	478.110992
3033.205865	0.626301	0.087624	1046.792603
3033.206756	0.088876	0.087624	1125.980835
3033.207722	0.085448	0.087624	1208.523560
3033.208622	0.085393	0.087624	1285.377319
3033.209521	0.085455	0.087624	1362.201660
3033.210456	0.085463	0.087624	1442.109253
3033.211368	0.085540	0.087624	1520.121338
3033.212264	0.085411	0.087624	1596.649902
3033.213154	0.085444	0.087624	1672.695312
3033.214116	0.085496	0.087624	1754.942139
3033.215013	0.085459	0.087624	1831.598877
3034.238933	1.046448	0.088292	464.622803
3034.239839	0.643740	0.088292	1047.851440
3034.240729	0.089231	0.088292	1127.266968
3034.241689	0.085430	0.088292	1209.279419
3034.242596	0.085404	0.088292	1286.740845
3034.243488	0.085444	0.088292	1362.957153
3034.244406	0.085492	0.088292	1441.438721
3034.245329	0.085408	0.088292	1520.270020
3034.246224	0.085433	0.088292	1596.732910
3034.247112	0.085397	0.088292	1672.565186
3034.248038	0.085430	0.088292	1751.673096
3034.248938	0.085430	0.088292	1828.559814
3035.271366	1.041281	0.086963	451.915741
3035.272309	0.601088	0.086963	1018.741333
3035.273272	0.087327	0.086963	1102.836914
3035.274188	0.085408	0.086963	1181.070435
3035.275076	0.085408	0.086963	1256.912476
3035.276029	0.085404	0.086963	1338.302490
3035.276966	0.085389	0.086963	1418.312378
3035.277860	0.085411	0.086963	1494.670166
3035.278785	0.085367	0.086963	1573.635010
3035.279720	0.085415	0.086963	1653.498047
3035.280644	0.085360	0.086963	1732.370850
3035.281530	0.085397	0.086963	1808.032349
3036.303831	1.047290	0.089005	462.902161
3036.304737	0.641126	0.089005	1043.761841
3036.305625	0.089260	0.089005	1123.024902
3036.306590	0.085411	0.089005	1205.446899
3036.307534	0.085378	0.089005	1286.044067
3036.308435	0.085437	0.089005	1363.022827
3036.309357	0.085367	0.089005	1441.731567
3036.310292	0.085485	0.089005	1521.659668
3036.311209	0.085448	0.089005	1600.015503
3036.312092	0.085459	0.089005	1675.475830
3036.313031	0.085430	0.089005	1755.694336
3036.313966	0.085433	0.089005	1835.574463
3037.338842	1.054263	0.086008	470.201141
3037.339737	0.637288	0.086008	1040.573608
3037.340699	0.087832	0.086008	1125.067993
3037.341607	0.085316	0.086008	1202.535034
3037.342503	0.085400	0.086008	1279.053833
3037.343434	0.085397	0.086008	1358.558228
3037.344337	0.085382	0.086008	1435.658203
3037.345238	0.085298	0.086008	1512.511597
3037.346124	0.085419	0.086008	1588.192627
3037.347073	0.085452	0.086008	1669.286255
3037.347971	0.085320	0.086008	1745.903442
3037.348868	0.085367	0.086008	1822.478027
3038.368975	1.042357	0.089654	456.552399
3038.369874	0.658835	0.089654	1048.845459
3038.370829	0.087828	0.089654	1132.721558
3038.371741	0.085375	0.089654	1210.583374
3038.372633	0.085393	0.089654	1286.754028
3038.373537	0.085389	0.089654	1363.946045
3038.374466	0.085430	0.089654	1443.310181
3038.375366	0.085345	0.089654	1520.121094
3038.376257	0.085378	0.089654	1596.193237
3038.377197	0.085474	0.089654	1676.538452
3038.378097	0.085367	0.089654	1753.369141
3038.378994	0.085419	0.089654	1829.989746
3039.406283	1.041178	0.086081	451.871246
3039.407213	0.637430	0.086081	1044.681519
3039.408144	0.087733	0.086081	1126.361084
3039.409046	0.085323	0.086081	1203.322876
3039.409935	0.085375	0.086081	1279.221069
3039.410867	0.085389	0.086081	1358.803955
3039.411787	0.085389	0.086081	1437.362183
3039.412705	0.085371	0.086081	1515.732910
3039.413598	0.085371	0.086081	1591.969238
3039.414560	0.085455	0.086081	1674.177246
3039.415451	0.085378	0.086081	1750.249390
3039.416336	0.085411	0.086081	1825.838501
3040.432365	1.088419	0.091334	513.733887
3040.433282	0.578342	0.091334	1044.073730
3040.434168	0.088235	0.091334	1122.249756
3040.435137	0.085327	0.091334	1204.931763
3040.436062	0.085433	0.091334	1283.957642
3040.436953	0.085518	0.091334	1360.153809
3040.437904	0.085408	0.091334	1441.376587
3040.438806	0.085470	0.091334	1518.470459
3040.439731	0.085499	0.091334	1597.557251
3040.440621	0.085518	0.091334	1673.667847
3040.441565	0.085448	0.091334	1754.330811
3040.442489	0.085448	0.091334	1833.284790
3041.475576	1.069201	0.085126	507.870239
3041.476513	0.564020	0.085126	1036.356812
3041.477403	0.087810	0.085126	1114.507812
3041.478325	0.085397	0.085126	1193.243652
3041.479253	0.085488	0.085126	1272.576782
3041.480174	0.085404	0.085126	1351.233887
3041.481073	0.085452	0.085126	1428.054932
3041.482007	0.085389	0.085126	1507.808594
3041.482931	0.085419	0.085126	1586.735474
3041.483846	0.085481	0.085126	1664.950562
3041.484737	0.085411	0.085126	1741.052124
3041.485679	0.085371	0.085126	1821.471680
3042.495994	1.067904	0.092143	507.254395
3042.496947	0.550646	0.092143	1032.019775
3042.497837	0.087393	0.092143	1109.799194
3042.498760	0.085386	0.092143	1188.610229
3042.499690	0.085448	0.092143	1268.076904
3042.500619	0.085496	0.092143	1347.502319
3042.501517	0.085558	0.092143	1424.333252
3042.502444	0.085485	0.092143	1503.577515
3042.503383	0.085437	0.092143	1583.802856
3042.504299	0.085496	0.092143	1662.116821
3042.505191	0.085441	0.092143	1738.329956
3042.506143	0.085408	0.092143	1819.638062
3043.545032	1.041874	0.084333	456.340729
3043.545925	0.666822	0.084333	1051.813232
3043.546898	0.087715	0.084333	1137.159790
3043.547802	0.085323	0.084333	1214.292236
3043.548699	0.085408	0.084333	1290.902954
3043.549585	0.085426	0.084333	1366.590454
3043.550518	0.085441	0.084333	1446.306641
3043.551410	0.085375	0.084333	1522.460937
3043.552305	0.085426	0.084333	1598.917236
3043.553235	0.085378	0.084333	1678.319214
3043.554144	0.085415	0.084333	1755.961426
3043.555044	0.085419	0.084333	1832.838257
3044.558814	1.055138	0.092474	472.701782
3044.559713	0.644824	0.092474	1052.398682
3044.560666	0.087927	0.092474	1136.193359
3044.561558	0.085320	0.092474	1212.298584
3044.562449	0.085378	0.092474	1288.370728
3044.563370	0.085404	0.092474	1367.027832
3044.564307	0.085371	0.092474	1447.020508
3044.565207	0.085353	0.092474	1523.838013
3044.566096	0.085419	0.092474	1599.775269
3044.567034	0.085419	0.092474	1679.897949
3044.567954	0.085356	0.092474	1758.425903
3044.568874	0.085382	0.092474	1836.977417
3045.614564	1.058957	0.083499	477.589813
3045.615467	0.637533	0.083499	1053.282104
3045.616356	0.089139	0.083499	1132.526978
3045.617322	0.085375	0.083499	1214.999023
3045.618211	0.085382	0.083499	1290.903687
3045.619126	0.085422	0.083499	1369.065186
3045.620027	0.085375	0.083499	1445.987793
3045.620974	0.085353	0.083499	1526.816895
3045.621882	0.085360	0.083499	1604.323853
3045.622765	0.085382	0.083499	1679.716187
3045.623736	0.085393	0.083499	1762.632812
3045.624652	0.085411	0.083499	1840.869629
3046.621693	1.087053	0.093159	522.872620
3046.622603	0.578251	0.093159	1049.080811
3046.623489	0.088011	0.093159	1127.058960
3046.624415	0.085265	0.093159	1206.014282
3046.625352	0.085342	0.093159	1285.979492
3046.626262	0.085371	0.093159	1363.667236
3046.627159	0.085364	0.093159	1440.238525
3046.628102	0.085371	0.093159	1520.743408
3046.629043	0.085367	0.093159	1601.074219
3046.629942	0.085419	0.093159	1677.865601
3046.630859	0.085389	0.093159	1756.167725
3046.631794	0.085404	0.093159	1836.020508
3047.685365	1.076708	0.083551	512.512878
3047.686303	0.542681	0.083551	1021.547363
3047.687203	0.087301	0.083551	1100.118286
3047.688131	0.085331	0.083551	1179.305298
3047.689079	0.085356	0.083551	1260.223145
3047.689993	0.085305	0.083551	1338.192017
3047.690886	0.085320	0.083551	1414.382568
3047.691831	0.085360	0.083551	1495.047852
3047.692766	0.085356	0.083551	1574.856079
3047.693665	0.085400	0.083551	1651.630981
3047.694579	0.085323	0.083551	1729.616699
3047.695510	0.085345	0.083551	1809.073364
3048.683746	1.063348	0.093586	484.886871
3048.684643	0.630029	0.093586	1050.023071
3048.685588	0.088876	0.093586	1134.010620
3048.686494	0.085466	0.093586	1211.443115
3048.687393	0.085415	0.093586	1288.231201
3048.688283	0.085441	0.093586	1364.273437
3048.689239	0.085481	0.093586	1445.993286
3048.690137	0.085448	0.093586	1522.725586
3048.691040	0.085492	0.093586	1599.924805
3048.691926	0.085477	0.093586	1675.657715
3048.692867	0.085594	0.093586	1756.202148
3048.693768	0.085437	0.093586	1833.180908
3049.755655	1.091561	0.081666	549.055359
3049.756584	0.527937	0.081666	1039.508911
3049.757482	0.087367	0.081666	1117.964478
3049.758368	0.085411	0.081666	1193.638916
3049.759299	0.085521	0.081666	1273.259155
3049.760208	0.085389	0.081666	1350.878174
3049.761107	0.085386	0.081666	1427.639893
3049.762029	0.085499	0.081666	1506.470215
3049.762941	0.085419	0.081666	1584.372070
3049.763847	0.085430	0.081666	1661.771362
3049.764737	0.085466	0.081666	1737.836426
3049.765667	0.085536	0.081666	1817.384766
3050.746334	1.065282	0.096035	476.181061
3050.747241	0.634962	0.096035	1052.091675
3050.748131	0.088890	0.096035	1131.204102
3050.749060	0.085441	0.096035	1210.578491
3050.749963	0.085499	0.096035	1287.784302
3050.750860	0.085492	0.096035	1364.470581
3050.751748	0.085389	0.096035	1440.296387
3050.752686	0.085510	0.096035	1520.505005
3050.753595	0.085433	0.096035	1598.163940
3050.754497	0.085430	0.096035	1675.221558
3050.755389	0.085400	0.096035	1751.398682
3050.756346	0.085474	0.096035	1833.196899
3051.825360	1.054808	0.082338	465.170502
3051.826350	0.550726	0.082338	1010.389648
3051.827249	0.087286	0.082338	1088.860107
3051.828159	0.085367	0.082338	1166.544434
3051.829056	0.085378	0.082338	1243.128906
3051.829994	0.085477	0.082338	1323.306641
3051.830897	0.085426	0.082338	1400.446289
3051.831786	0.085492	0.082338	1476.448608
3051.832718	0.085470	0.082338	1556.106567
3051.833642	0.085452	0.082338	1635.063843
3051.834540	0.085430	0.082338	1711.779663
3051.835431	0.085459	0.082338	1787.923584
3052.809685	1.069779	0.093070	481.400574
3052.810658	0.534401	0.093070	1001.372375
3052.811582	0.087136	0.093070	1081.886230
3052.812502	0.085378	0.093070	1160.434326
3052.813391	0.085331	0.093070	1236.293457
3052.814330	0.085331	0.093070	1316.419067
3052.815263	0.085327	0.093070	1396.029297
3052.816159	0.085441	0.093070	1472.584106
3052.817075	0.085426	0.093070	1550.834351
3052.818013	0.085426	0.093070	1630.963989
3052.818926	0.085441	0.093070	1708.971313
3052.819814	0.085397	0.093070	1784.803589
3053.895146	1.086427	0.082093	509.534241
3053.896056	0.592888	0.082093	1049.062500
3053.896984	0.087722	0.082093	1130.468628
3053.897924	0.085316	0.082093	1210.665771
3053.898843	0.085375	0.082093	1289.125122
3053.899734	0.085375	0.082093	1365.193970
3053.900684	0.085345	0.082093	1446.272217
3053.901622	0.085353	0.082093	1526.333130
3053.902516	0.085397	0.082093	1602.677856
3053.903439	0.085408	0.082093	1681.509155
3053.904369	0.085378	0.082093	1760.911133
3053.905289	0.085452	0.082093	1839.526611
3054.874349	1.054973	0.092784	496.892334
3054.875260	0.594690	0.092784	1038.654907
3054.876152	0.088213	0.092784	1117.340820
3054.877073	0.085298	0.092784	1195.900146
3054.878020	0.085356	0.092784	1276.732666
3054.878937	0.085371	0.092784	1355.017944
3054.879823	0.085419	0.092784	1430.698975
3054.880755	0.085441	0.092784	1510.329712
3054.881682	0.085411	0.092784	1589.506104
3054.882601	0.085408	0.092784	1667.995850
3054.883488	0.085408	0.092784	1743.752441
3054.884435	0.085444	0.092784	1824.668213
3055.963382	1.096798	0.082870	527.559875
3055.964326	0.520089	0.082870	1018.523987
3055.965258	0.086759	0.082870	1099.383423
3055.966147	0.085382	0.082870	1175.288086
3055.967098	0.085367	0.082870	1256.472534
3055.968037	0.085422	0.082870	1336.684082
3055.968932	0.085419	0.082870	1413.133789
3055.969861	0.085433	0.082870	1492.501343
3055.970786	0.085481	0.082870	1571.571289
3055.971709	0.085481	0.082870	1650.470215
3055.972602	0.085331	0.082870	1726.670654
3055.973541	0.085437	0.082870	1806.895996
3056.939466	1.051516	0.092361	462.667053
3056.940456	0.537012	0.092361	994.308655
3056.941375	0.087070	0.092361	1074.326294
3056.942271	0.085309	0.092361	1150.763062
3056.943200	0.085400	0.092361	1230.099976
3056.944142	0.085375	0.092361	1310.522949
3056.945053	0.085507	0.092361	1388.419434
3056.945954	0.085433	0.092361	1465.394897
3056.946896	0.085389	0.092361	1545.831665
3056.947836	0.085367	0.092361	1626.077026
3056.948734	0.085466	0.092361	1702.825806
3056.949658	0.085371	0.092361	1781.708740
3058.030324	1.066040	0.082016	513.831299
3058.031271	0.539044	0.082016	1024.306152
3058.032198	0.087004	0.082016	1104.959229
3058.033088	0.085371	0.082016	1180.939453
3058.034012	0.085404	0.082016	1259.852783
3058.034951	0.085408	0.082016	1340.050659
3058.035868	0.085331	0.082016	1418.299072
3058.036760	0.085400	0.082016	1494.476196
3058.037707	0.085371	0.082016	1575.322632
3058.038631	0.085356	0.082016	1654.192017
3058.039550	0.085408	0.082016	1732.681641
3058.040436	0.085375	0.082016	1808.323730
3059.004680	1.099592	0.093082	550.895691
3059.005609	0.527080	0.093082	1040.553101
3059.006506	0.087466	0.093082	1119.009888
3059.007397	0.085327	0.093082	1195.036377
3059.008335	0.085518	0.093082	1275.251831
3059.009237	0.085419	0.093082	1352.299561
3059.010135	0.085419	0.093082	1429.005615
3059.011046	0.085426	0.093082	1506.828735
3059.011979	0.085518	0.093082	1586.616699
3059.012884	0.085386	0.093082	1663.890747
3059.013778	0.085349	0.093082	1740.192871
3059.014707	0.085422	0.093082	1819.550293
3060.097232	1.042185	0.082584	458.561432
3060.098192	0.579811	0.082584	1015.179810
3060.099088	0.087894	0.082584	1093.933105
3060.099991	0.085378	0.082584	1171.029785
3060.100885	0.085433	0.082584	1247.407227
3060.101830	0.085400	0.082584	1328.110596
3060.102736	0.085382	0.082584	1405.466797
3060.103633	0.085448	0.082584	1482.113647
3060.104565	0.085455	0.082584	1561.758057
3060.105473	0.085444	0.082584	1639.341553
3060.106373	0.085386	0.082584	1716.188721
3060.107266	0.085448	0.082584	1792.493774
3061.071828	1.053889	0.091660	465.819000
3061.072755	0.620900	0.091660	1041.392944
3061.073650	0.088656	0.091660	1120.740112
3061.074586	0.085470	0.091660	1200.739990
3061.075486	0.085437	0.091660	1277.633301
3061.076383	0.085514	0.091660	1354.339233
3061.077267	0.085448	0.091660	1429.875244
3061.078213	0.085488	0.091660	1510.747192
3061.079116	0.085507	0.091660	1587.959595
3061.080014	0.085488	0.091660	1664.728027
3061.080939	0.085463	0.091660	1743.781006
3061.081847	0.085488	0.091660	1821.404419
3062.164479	1.109300	0.082467	544.666565
3062.165391	0.563643	0.082467	1058.708618
3062.166291	0.087924	0.082467	1137.839844
3062.167177	0.085433	0.082467	1213.533813
3062.168123	0.085496	0.082467	1294.412598
3062.169024	0.085422	0.082467	1371.378174
3062.169924	0.085400	0.082467	1448.238525
3062.170849	0.085507	0.082467	1527.332153
3062.171754	0.085587	0.082467	1604.788574
3062.172658	0.085415	0.082467	1682.003784
3062.173553	0.085481	0.082467	1758.509277
3062.174487	0.085477	0.082467	1838.345093
3063.136973	1.043353	0.092546	456.988739
3063.137915	0.595038	0.092546	1017.514404
3063.138832	0.088033	0.092546	1098.241089
3063.139731	0.085378	0.092546	1174.996338
3063.140641	0.085481	0.092546	1252.784058
3063.141578	0.085510	0.092546	1332.907227
3063.142489	0.085433	0.092546	1410.737061
3063.143383	0.085485	0.092546	1487.160278
3063.144308	0.085503	0.092546	1566.250488
3063.145209	0.085441	0.092546	1643.232544
3063.146103	0.085466	0.092546	1719.639404
3063.146992	0.085408	0.092546	1795.566895
3064.231134	1.056090	0.082379	472.072235
3064.232055	0.623833	0.082379	1046.622437
3064.232942	0.088671	0.082379	1125.273315
3064.233852	0.085353	0.082379	1202.944336
3064.234779	0.085525	0.082379	1282.225952
3064.235686	0.085474	0.082379	1359.750488
3064.236582	0.085459	0.082379	1436.321777
3064.237507	0.085521	0.082379	1515.428955
3064.238403	0.085411	0.082379	1591.957520
3064.239302	0.085411	0.082379	1668.742310
3064.240187	0.085444	0.082379	1744.360596
3064.241133	0.085518	0.082379	1825.260254
3065.203658	1.062872	0.091124	466.600922
3065.204642	0.524985	0.091124	983.186523
3065.205547	0.087305	0.091124	1062.197266
3065.206447	0.085378	0.091124	1139.037842
3065.207380	0.085448	0.091124	1218.760864
3065.208284	0.085470	0.091124	1296.025757
3065.209176	0.085356	0.091124	1372.163696
3065.210064	0.085408	0.091124	1448.005737
3065.210991	0.085408	0.091124	1527.178711
3065.211895	0.085444	0.091124	1604.420410
3065.212801	0.085397	0.091124	1681.789795
3065.213691	0.085415	0.091124	1757.809204
3066.296777	1.050513	0.082608	460.124542
3066.297741	0.567389	0.082608	1007.087402
3066.298654	0.087616	0.082608	1087.080811
3066.299554	0.085397	0.082608	1163.937866
3066.300483	0.085470	0.082608	1243.339478
3066.301383	0.085576	0.082608	1320.358032
3066.302286	0.085397	0.082608	1397.471313
3066.303173	0.085356	0.082608	1473.182495
3066.304121	0.085474	0.082608	1554.211548
3066.305025	0.085411	0.082608	1631.423462
3066.305920	0.085433	0.082608	1707.886353
3066.306807	0.085371	0.082608	1783.610474
3067.270873	1.059393	0.092232	467.192444
3067.271804	0.615824	0.092232	1040.524658
3067.272701	0.088418	0.092232	1119.835571
3067.273627	0.085444	0.092232	1198.957031
3067.274534	0.085532	0.092232	1276.534790
3067.275442	0.085459	0.092232	1354.131592
3067.276343	0.085437	0.092232	1431.110352
3067.277293	0.085587	0.092232	1512.418213
3067.278193	0.085415	0.092232	1589.291748
3067.279089	0.085463	0.092232	1665.866333
3067.279975	0.085433	0.092232	1741.560303
3067.280908	0.085514	0.092232	1821.344727
3068.363722	1.058441	0.081944	467.830994
3068.364693	0.551034	0.081944	1002.884949
3068.365600	0.087539	0.081944	1082.282837
3068.366491	0.085400	0.081944	1158.374634
3068.367426	0.085514	0.081944	1238.330200
3068.368347	0.085389	0.081944	1316.973877
3068.369249	0.085426	0.081944	1394.028198
3068.370137	0.085389	0.081944	1469.854004
3068.371080	0.085532	0.081944	1550.510864
3068.371990	0.085415	0.081944	1628.238525
3068.372886	0.085444	0.081944	1704.796631
3068.373774	0.085444	0.081944	1780.671143
3069.337113	1.133357	0.092006	587.078918
3069.338047	0.491290	0.092006	1045.943970
3069.338952	0.086953	0.092006	1124.636597
3069.339838	0.085470	0.092006	1200.363037
3069.340779	0.085518	0.092006	1280.835083
3069.341681	0.085466	0.092006	1357.925659
3069.342571	0.085488	0.092006	1434.010254
3069.343507	0.085415	0.092006	1513.958740
3069.344407	0.085543	0.092006	1590.947632
3069.345311	0.085507	0.092006	1668.245605
3069.346198	0.085481	0.092006	1744.067261
3069.347153	0.085470	0.092006	1825.691040
3070.428877	1.044474	0.081577	456.435089
3070.429774	0.648809	0.081577	1038.416382
3070.430727	0.088125	0.081577	1122.399536
3070.431636	0.085404	0.081577	1200.031860
3070.432527	0.085474	0.081577	1276.188843
3070.433469	0.085510	0.081577	1356.739502
3070.434363	0.085521	0.081577	1433.195435
3070.435267	0.085397	0.081577	1510.394043
3070.436162	0.085400	0.081577	1586.827393
3070.437089	0.085452	0.081577	1666.041016
3070.437997	0.085444	0.081577	1743.624512
3070.438904	0.085481	0.081577	1821.155762
