time (s)	coil I (A)	last det (V)	int current (uC)
8094.541336	1.074642	0.052924	550.216919
8094.542254	1.518072	0.052924	1943.807495
8094.543173	1.501186	0.052924	3323.397949
8094.544076	1.462808	0.052924	4644.313477
8094.545011	1.424480	0.052924	5976.202148
8094.545937	0.935380	0.052924	6842.363770
8094.546840	0.102576	0.052924	6934.989746
8094.547728	0.085265	0.052924	7010.705078
8094.548677	0.085474	0.052924	7091.819336
8094.549575	0.085313	0.052924	7168.430176
8094.550465	0.085378	0.052924	7244.416992
8094.551404	0.085419	0.052924	7324.625000
8094.552302	0.085459	0.052924	7401.367187
8094.553206	0.085371	0.052924	7478.542480
8094.554093	0.085419	0.052924	7554.309082
8094.555030	0.085492	0.052924	7634.415039
8095.536076	1.037333	0.060175	453.314423
8095.536974	1.513202	0.060175	1812.169678
8095.537940	1.503325	0.060175	3264.381836
8095.538842	1.464851	0.060175	4585.677734
8095.539747	1.427692	0.060175	5877.738770
8095.540680	1.007073	0.060175	6817.337402
8095.541609	0.110764	0.060175	6920.237305
8095.542510	0.085313	0.060175	6997.104004
8095.543409	0.085375	0.060175	7073.855957
8095.544342	0.085477	0.060175	7153.606445
8095.545247	0.085437	0.060175	7230.926758
8095.546157	0.085400	0.060175	7308.641113
8095.547044	0.085393	0.060175	7384.384766
8095.547991	0.085488	0.060175	7465.342285
8095.548894	0.085477	0.060175	7542.528320
8095.549788	0.085378	0.060175	7618.856445
8096.607729	1.081897	0.055542	504.164001
8096.608648	1.516282	0.055542	1897.626953
8096.609575	1.502523	0.055542	3290.465820
8096.610471	1.463928	0.055542	4602.145508
8096.611423	1.425839	0.055542	5959.543945
8096.612344	0.971928	0.055542	6854.689453
8096.613234	0.108344	0.055542	6951.115234
8096.614167	0.085334	0.055542	7030.732422
8096.615074	0.085323	0.055542	7108.120605
8096.615977	0.085415	0.055542	7185.250488
8096.616865	0.085386	0.055542	7261.073242
8096.617811	0.085477	0.055542	7341.934570
8096.618714	0.085393	0.055542	7419.044434
8096.619616	0.085316	0.055542	7495.999512
8096.620505	0.085422	0.055542	7571.939941
8096.621440	0.085459	0.055542	7651.844238
8097.600987	1.053505	0.058595	465.649017
8097.601895	1.514571	0.058595	1840.879883
8097.602807	1.504622	0.058595	3213.094727
8097.603706	1.465800	0.058595	4530.848633
8097.604657	1.427505	0.058595	5888.405762
8097.605577	1.040980	0.058595	6846.107422
8097.606468	0.118418	0.058595	6951.617676
8097.607402	0.085393	0.058595	7031.375000
8097.608304	0.085433	0.058595	7108.436035
8097.609202	0.085382	0.058595	7185.109375
8097.610089	0.085419	0.058595	7260.875977
8097.611041	0.085499	0.058595	7342.271484
8097.611940	0.085452	0.058595	7419.092285
8097.612848	0.085444	0.058595	7496.675781
8097.613739	0.085364	0.058595	7572.734863
8097.614679	0.085444	0.058595	7653.052734
8098.676686	1.036948	0.056593	453.146423
8098.677642	1.516410	0.056593	1902.834229
8098.678560	1.502673	0.056593	3282.288330
8098.679470	1.464291	0.056593	4614.792969
8098.680398	1.426490	0.056593	5938.576172
8098.681331	0.981998	0.056593	6854.780762
8098.682243	0.107571	0.056593	6952.885254
8098.683136	0.085258	0.056593	7029.020508
8098.684064	0.085393	0.056593	7108.265137
8098.684967	0.085400	0.056593	7185.381836
8098.685867	0.085437	0.056593	7262.275391
8098.686759	0.085411	0.056593	7338.462402
8098.687719	0.085463	0.056593	7420.506348
8098.688625	0.085353	0.056593	7497.835937
8098.689522	0.085419	0.056593	7574.456543
8098.690442	0.085411	0.056593	7653.035156
8099.665367	1.052179	0.058938	474.532654
8099.666260	1.513729	0.058938	1826.292725
8099.667218	1.503450	0.058938	3266.597656
8099.668118	1.464628	0.058938	4584.762695
8099.669026	1.427399	0.058938	5880.840820
8099.669932	1.052069	0.058938	6834.015625
8099.670880	0.110068	0.058938	6938.360352
8099.671779	0.085276	0.058938	7015.023437
8099.672680	0.085342	0.058938	7091.916504
8099.673596	0.085441	0.058938	7170.180176
8099.674515	0.085455	0.058938	7248.713379
8099.675421	0.085276	0.058938	7325.973145
8099.676311	0.085378	0.058938	7401.959961
8099.677236	0.085404	0.058938	7480.958496
8099.678141	0.085422	0.058938	7558.265625
8099.679040	0.085437	0.058938	7635.073730
8100.747738	1.060386	0.055216	473.992401
8100.748648	1.514260	0.055216	1851.969238
8100.749553	1.504457	0.055216	3213.502441
8100.750493	1.465056	0.055216	4590.655273
8100.751405	1.427476	0.055216	5892.512695
8100.752323	1.039113	0.055216	6846.417969
8100.753209	0.118795	0.055216	6951.670410
8100.754159	0.085404	0.055216	7032.804199
8100.755068	0.085422	0.055216	7110.453125
8100.755959	0.085470	0.055216	7186.606934
8100.756887	0.085492	0.055216	7265.943359
8100.757795	0.085518	0.055216	7343.593262
8100.758702	0.085327	0.055216	7420.984863
8100.759604	0.085422	0.055216	7498.035645
8100.760534	0.085492	0.055216	7577.542969
8100.761438	0.085463	0.055216	7654.801270
8101.732807	1.034436	0.057729	447.910797
8101.733762	1.514846	0.057729	1894.588867
8101.734683	1.502607	0.057729	3278.490234
8101.735591	1.464071	0.057729	4607.866699
8101.736486	1.426879	0.057729	5884.922852
8101.737444	0.991857	0.057729	6835.121582
8101.738350	0.109080	0.057729	6933.947754
8101.739239	0.085309	0.057729	7009.787109
8101.740176	0.085422	0.057729	7089.827637
8101.741078	0.085459	0.057729	7166.911621
8101.741982	0.085375	0.057729	7244.090332
8101.742879	0.085378	0.057729	7320.674805
8101.743808	0.085437	0.057729	7400.045898
8101.744712	0.085430	0.057729	7477.274414
8101.745615	0.085375	0.057729	7554.367676
8101.746501	0.085349	0.057729	7629.986816
8102.815209	1.081703	0.055349	506.236969
8102.816112	1.515150	0.055349	1874.417603
8102.817072	1.501966	0.055349	3316.305420
8102.817988	1.462877	0.055349	4656.300781
8102.818894	1.425590	0.055349	5947.884766
8102.819791	0.988484	0.055349	6834.554687
8102.820726	0.105707	0.055349	6933.390625
8102.821631	0.085276	0.055349	7010.565430
8102.822529	0.085393	0.055349	7087.248535
8102.823451	0.085547	0.055349	7166.122559
8102.824355	0.085510	0.055349	7243.423828
8102.825261	0.085426	0.055349	7320.819824
8102.826150	0.085459	0.055349	7396.792969
8102.827092	0.085430	0.055349	7477.267578
8102.827988	0.085499	0.055349	7553.875000
8102.828887	0.085441	0.055349	7630.686035
8103.804380	1.061569	0.055111	474.521179
8103.805277	1.513568	0.055111	1832.191650
8103.806171	1.504614	0.055111	3177.316895
8103.807126	1.465111	0.055111	4576.498047
8103.808044	1.427373	0.055111	5886.826660
8103.808943	1.057584	0.055111	6837.594727
8103.809868	0.120403	0.055111	6948.967285
8103.810784	0.085430	0.055111	7027.220703
8103.811695	0.085404	0.055111	7105.023926
8103.812595	0.085353	0.055111	7181.841309
8103.813523	0.085455	0.055111	7261.144043
8103.814420	0.085426	0.055111	7337.770996
8103.815324	0.085345	0.055111	7414.923340
8103.816212	0.085349	0.055111	7490.713379
8103.817152	0.085569	0.055111	7571.147949
8103.818056	0.085463	0.055111	7648.406250
8104.879559	1.048458	0.055921	458.176239
8104.880527	1.516765	0.055921	1926.404907
8104.881439	1.502047	0.055921	3296.271973
8104.882342	1.463866	0.055921	4618.142578
8104.883283	1.425992	0.055921	5960.001465
8104.884210	0.971316	0.055921	6860.411133
8104.885110	0.106750	0.055921	6956.486328
8104.885998	0.085316	0.055921	7032.247070
8104.886941	0.085470	0.055921	7112.845215
8104.887839	0.085488	0.055921	7189.613770
8104.888734	0.085463	0.055921	7266.103027
8104.889617	0.085496	0.055921	7341.595703
8104.890567	0.085463	0.055921	7422.785156
8104.891476	0.085426	0.055921	7500.437500
8104.892367	0.085485	0.055921	7576.604492
8104.893289	0.085492	0.055921	7655.428223
8105.871311	1.046481	0.054966	463.590942
8105.872209	1.513839	0.054966	1823.018433
8105.873160	1.503798	0.054966	3253.129883
8105.874071	1.464840	0.054966	4587.599121
8105.874973	1.427637	0.054966	5875.327637
8105.875874	1.069189	0.054966	6838.667480
8105.876819	0.113452	0.054966	6945.879883
8105.877714	0.085386	0.054966	7022.300293
8105.878616	0.085503	0.054966	7099.423828
8105.879504	0.085496	0.054966	7175.343750
8105.880453	0.085485	0.054966	7256.468750
8105.881361	0.085404	0.054966	7334.015625
8105.882262	0.085386	0.054966	7410.948242
8105.883192	0.085485	0.054966	7490.448730
8105.884089	0.085463	0.054966	7567.108887
8105.884989	0.085408	0.054966	7643.975586
8106.944468	1.046975	0.055159	464.856964
8106.945365	1.513202	0.055159	1822.198975
8106.946258	1.505229	0.055159	3166.368896
8106.947208	1.465477	0.055159	4558.572266
8106.948129	1.427549	0.055159	5873.344727
8106.949043	1.057375	0.055159	6839.786133
8106.949952	0.119923	0.055159	6948.796387
8106.950885	0.085349	0.055159	7028.427246
8106.951781	0.085444	0.055159	7104.985352
8106.952669	0.085382	0.055159	7180.804687
8106.953608	0.085514	0.055159	7261.102051
8106.954504	0.085485	0.055159	7337.696289
8106.955408	0.085463	0.055159	7414.954590
8106.956295	0.085433	0.055159	7490.733887
8106.957230	0.085481	0.055159	7570.658691
8106.958130	0.085463	0.055159	7647.575195
8107.939271	1.044650	0.056424	456.511871
8107.940247	1.516923	0.056424	1937.028320
8107.941164	1.501501	0.056424	3313.905273
8107.942065	1.463474	0.056424	4632.495605
8107.942996	1.425571	0.056424	5959.702637
8107.943902	0.996951	0.056424	6862.939941
8107.944796	0.111273	0.056424	6962.417969
8107.945683	0.085364	0.056424	7038.135742
8107.946613	0.085499	0.056424	7117.649902
8107.947514	0.085481	0.056424	7194.668457
8107.948415	0.085470	0.056424	7271.676758
8107.949306	0.085485	0.056424	7347.843750
8107.950255	0.085558	0.056424	7429.038086
8107.951169	0.085485	0.056424	7507.170898
8107.952070	0.085492	0.056424	7584.199219
8107.953010	0.085536	0.056424	7664.603027
8109.012428	1.037380	0.054684	453.335205
8109.013380	1.515381	0.054684	1895.977783
8109.014298	1.502523	0.054684	3275.293945
8109.015199	1.464126	0.054684	4594.471680
8109.016133	1.426077	0.054684	5926.427246
8109.017061	0.992073	0.054684	6847.070801
8109.017965	0.109113	0.054684	6945.708496
8109.018854	0.085400	0.054684	7021.629395
8109.019804	0.085551	0.054684	7102.902344
8109.020700	0.085525	0.054684	7179.532715
8109.021600	0.085452	0.054684	7256.438965
8109.022484	0.085521	0.054684	7332.039551
8109.023429	0.085554	0.054684	7412.888184
8109.024330	0.085477	0.054684	7489.903320
8109.025223	0.085488	0.054684	7566.244141
8109.026170	0.085400	0.054684	7647.118164
8110.009342	1.058456	0.057621	515.467957
8110.010259	1.516545	0.057621	1906.140137
8110.011165	1.502303	0.057621	3267.227051
8110.012058	1.464448	0.057621	4574.979492
8110.013002	1.425666	0.057621	5920.808594
8110.013932	0.982734	0.057621	6834.751465
8110.014836	0.107769	0.057621	6932.174316
8110.015727	0.085309	0.057621	7008.184570
8110.016666	0.085499	0.057621	7088.468262
8110.017575	0.085386	0.057621	7166.083984
8110.018464	0.085470	0.057621	7242.066895
8110.019397	0.085477	0.057621	7321.817383
8110.020304	0.085455	0.057621	7399.325195
8110.021205	0.085389	0.057621	7476.261230
8110.022097	0.085378	0.057621	7552.418945
8110.023034	0.085485	0.057621	7632.518066
8111.078344	1.039420	0.054785	455.266022
8111.079303	1.513107	0.054785	1906.335327
8111.080211	1.502567	0.054785	3270.666260
8111.081113	1.464371	0.054785	4591.529297
8111.082004	1.427355	0.054785	5863.302246
8111.082965	1.006047	0.054785	6830.113770
8111.083871	0.110347	0.054785	6930.087891
8111.084775	0.085327	0.054785	7007.223633
8111.085662	0.085415	0.054785	7082.986816
8111.086624	0.085507	0.054785	7165.244141
8111.087535	0.085444	0.054785	7243.083984
8111.088433	0.085404	0.054785	7319.776855
8111.089388	0.085503	0.054785	7401.432129
8111.090287	0.085470	0.054785	7478.269531
8111.091185	0.085378	0.054785	7554.939453
8111.092074	0.085426	0.054785	7630.883301
8112.082907	1.059609	0.057625	474.704956
8112.083822	1.514707	0.057625	1860.661987
8112.084734	1.502944	0.057625	3231.347168
8112.085636	1.464617	0.057625	4552.431641
8112.086588	1.426414	0.057625	5910.377441
8112.087512	1.011987	0.057625	6845.453613
8112.088400	0.114056	0.057625	6946.735840
8112.089340	0.085272	0.057625	7026.891602
8112.090244	0.085386	0.057625	7104.080078
8112.091143	0.085367	0.057625	7180.825195
8112.092039	0.085452	0.057625	7257.389648
8112.092987	0.085430	0.057625	7338.376953
8112.093898	0.085342	0.057625	7416.123535
8112.094794	0.085430	0.057625	7492.668457
8112.095716	0.085356	0.057625	7571.367187
8112.096630	0.085532	0.057625	7649.543457
8113.142218	1.038285	0.053745	456.845367
8113.143198	1.516586	0.053745	1943.099365
8113.144113	1.501285	0.053745	3316.775391
8113.145016	1.462994	0.053745	4637.859375
8113.145908	1.425571	0.053745	5909.468750
8113.146864	0.964860	0.053745	6831.874512
8113.147770	0.105623	0.053745	6927.568359
8113.148665	0.085305	0.053745	7003.916504
8113.149595	0.085488	0.053745	7083.420410
8113.150503	0.085364	0.053745	7160.930664
8113.151399	0.085302	0.053745	7237.360840
8113.152284	0.085364	0.053745	7312.907715
8113.153232	0.085444	0.053745	7393.909180
8113.154138	0.085375	0.053745	7471.258789
8113.155031	0.085360	0.053745	7547.485352
8113.155921	0.085367	0.053745	7623.462402
8114.154447	1.041057	0.058567	461.188293
8114.155341	1.512426	0.058567	1813.296631
8114.156305	1.502490	0.058567	3261.697266
8114.157223	1.463708	0.058567	4605.381836
8114.158126	1.426476	0.058567	5893.489258
8114.159082	0.986415	0.058567	6836.501953
8114.159985	0.107607	0.058567	6933.671387
8114.160884	0.085250	0.058567	7010.311523
8114.161770	0.085360	0.058567	7085.940430
8114.162708	0.085459	0.058567	7166.101074
8114.163603	0.085419	0.058567	7242.550781
8114.164503	0.085305	0.058567	7319.325195
8114.165387	0.085356	0.058567	7394.780273
8114.166319	0.085430	0.058567	7474.400879
8114.167236	0.085364	0.058567	7552.679687
8114.168135	0.085367	0.058567	7629.424805
8115.205636	1.086617	0.051397	541.135437
8115.206556	1.516871	0.051397	1936.656982
8115.207466	1.500875	0.051397	3302.453613
8115.208360	1.463170	0.051397	4610.527832
8115.209309	1.424744	0.051397	5962.609375
8115.210227	0.962878	0.051397	6846.531738
8115.211116	0.106864	0.051397	6941.533691
8115.212020	0.085294	0.051397	7018.639648
8115.212944	0.085448	0.051397	7097.593750
8115.213843	0.085265	0.051397	7174.247070
8115.214738	0.085345	0.051397	7250.631348
8115.215668	0.085356	0.051397	7330.012695
8115.216573	0.085485	0.051397	7407.376465
8115.217472	0.085455	0.051397	7484.200684
8115.218359	0.085316	0.051397	7559.875977
8115.219307	0.085415	0.051397	7640.849609
8116.225542	1.077762	0.057242	536.725647
8116.226445	1.515736	0.057242	1905.435303
8116.227351	1.502563	0.057242	3266.757812
8116.228247	1.463976	0.057242	4578.479980
8116.229190	1.425429	0.057242	5922.659180
8116.230110	0.985902	0.057242	6829.688965
8116.231015	0.108168	0.057242	6927.580566
8116.231928	0.085302	0.057242	7005.460937
8116.232864	0.085452	0.057242	7085.443848
8116.233769	0.085364	0.057242	7162.698242
8116.234664	0.085331	0.057242	7239.069336
8116.235594	0.085404	0.057242	7318.495117
8116.236503	0.085386	0.057242	7396.110840
8116.237399	0.085320	0.057242	7472.557617
8116.238285	0.085338	0.057242	7548.166992
8116.239218	0.085408	0.057242	7627.852539
8117.268942	1.040618	0.053061	456.831177
8117.269912	1.515846	0.053061	1927.201660
8117.270818	1.501223	0.053061	3287.310059
8117.271736	1.462764	0.053061	4630.126953
8117.272636	1.425139	0.053061	5912.751953
8117.273609	0.940671	0.053061	6828.025391
8117.274508	0.103572	0.053061	6921.136230
8117.275400	0.085243	0.053061	6997.172852
8117.276332	0.085470	0.053061	7076.831055
8117.277251	0.085327	0.053061	7155.246582
8117.278175	0.085364	0.053061	7234.122559
8117.279068	0.085331	0.053061	7310.322754
8117.280025	0.085338	0.053061	7391.991211
8117.280917	0.085353	0.053061	7468.125977
8117.281803	0.085338	0.053061	7543.735352
8117.282717	0.085386	0.053061	7621.777832
8118.297034	1.035483	0.055776	453.541779
8118.297930	1.512352	0.055776	1808.609497
8118.298870	1.503424	0.055776	3221.828125
8118.299790	1.464595	0.055776	4569.255371
8118.300702	1.427417	0.055776	5871.059570
8118.301595	1.040233	0.055776	6799.987793
8118.302547	0.113353	0.055776	6907.899902
8118.303448	0.085217	0.055776	6984.680664
8118.304339	0.085349	0.055776	7060.726562
8118.305270	0.085459	0.055776	7140.289062
8118.306160	0.085448	0.055776	7216.337891
8118.307061	0.085364	0.055776	7293.250488
8118.307950	0.085364	0.055776	7369.138672
8118.308895	0.085342	0.055776	7449.786621
8118.309797	0.085386	0.055776	7526.804687
8118.310702	0.085364	0.055776	7604.059082
8119.333836	1.041639	0.055925	459.363007
8119.334733	1.512235	0.055925	1815.837891
8119.335728	1.501267	0.055925	3309.598633
8119.336638	1.462438	0.055925	4640.416992
8119.337540	1.425359	0.055925	5926.090820
8119.338496	0.953386	0.055925	6837.528320
8119.339397	0.104359	0.055925	6931.555664
8119.340298	0.085280	0.055925	7008.392578
8119.341188	0.085371	0.055925	7084.373047
8119.342136	0.085408	0.055925	7165.339355
8119.343032	0.085408	0.055925	7241.864746
8119.343930	0.085389	0.055925	7318.544434
8119.344814	0.085411	0.055925	7394.047852
8119.345762	0.085419	0.055925	7475.024902
8119.346662	0.085298	0.055925	7551.792969
8119.347559	0.085408	0.055925	7628.403809
8120.367560	1.035366	0.057294	449.348907
8120.368527	1.514022	0.057294	1913.408325
8120.369433	1.502109	0.057294	3274.319336
8120.370335	1.464031	0.057294	4594.875000
8120.371228	1.426912	0.057294	5869.106934
8120.372186	1.008820	0.057294	6835.556152
8120.373084	0.111793	0.057294	6935.946289
8120.373982	0.085283	0.057294	7012.530762
8120.374906	0.085492	0.057294	7091.525391
8120.375817	0.085580	0.057294	7169.488770
8120.376724	0.085375	0.057294	7246.923828
8120.377618	0.085411	0.057294	7323.281738
8120.378550	0.085459	0.057294	7402.929687
8120.379454	0.085393	0.057294	7480.125000
8120.380362	0.085393	0.057294	7557.662109
8120.381248	0.085408	0.057294	7633.333496
8121.397716	1.044097	0.059119	465.667084
8121.398618	1.512876	0.059119	1830.281250
8121.399582	1.502351	0.059119	3278.547852
8121.400484	1.463353	0.059119	4598.492676
8121.401407	1.425385	0.059119	5914.122559
8121.402315	1.018967	0.059119	6839.344727
8121.403266	0.105604	0.059119	6939.774414
8121.404178	0.085203	0.059119	7017.479004
8121.405099	0.085327	0.059119	7096.065430
8121.405985	0.085334	0.059119	7171.671875
8121.406935	0.085316	0.059119	7252.722168
8121.407858	0.085426	0.059119	7331.570312
8121.408747	0.085280	0.059119	7407.383789
8121.409695	0.085382	0.059119	7488.326172
8121.410585	0.085389	0.059119	7564.322754
8121.411501	0.085364	0.059119	7642.516113
8122.437575	1.034429	0.057584	453.079773
8122.438539	1.516077	0.057584	1914.577637
8122.439456	1.501512	0.057584	3291.464355
8122.440374	1.462632	0.057584	4634.160156
8122.441292	1.424978	0.057584	5942.290039
8122.442235	0.956338	0.057584	6844.116699
8122.443141	0.105212	0.057584	6939.438965
8122.444034	0.085247	0.057584	7015.563965
8122.444959	0.085375	0.057584	7094.535645
8122.445867	0.085342	0.057584	7172.025879
8122.446773	0.085393	0.057584	7249.392090
8122.447664	0.085334	0.057584	7325.425293
8122.448612	0.085426	0.057584	7406.409180
8122.449518	0.085360	0.057584	7483.745605
8122.450413	0.085342	0.057584	7560.126465
8122.451325	0.085305	0.057584	7637.924805
8123.463626	1.036128	0.059192	450.715637
8123.464552	1.512221	0.059192	1851.031738
8123.465501	1.501966	0.059192	3276.397949
8123.466416	1.463218	0.059192	4615.242187
8123.467312	1.426256	0.059192	5893.167969
8123.468265	0.985455	0.059192	6832.306641
8123.469161	0.108596	0.059192	6929.608887
8123.470066	0.085232	0.059192	7006.743652
8123.470955	0.085258	0.059192	7082.537598
8123.471903	0.085452	0.059192	7163.545898
8123.472802	0.085382	0.059192	7240.304199
8123.473695	0.085302	0.059192	7316.478516
8123.474621	0.085327	0.059192	7395.491211
8123.475522	0.085455	0.059192	7472.486328
8123.476422	0.085313	0.059192	7549.267578
8123.477318	0.085323	0.059192	7625.717285
8124.505599	1.079634	0.057097	531.179871
8124.506512	1.516296	0.057097	1915.558594
8124.507439	1.500645	0.057097	3306.656250
8124.508342	1.462368	0.057097	4627.174805
8124.509310	1.422953	0.057097	6004.593262
8124.510228	0.921511	0.057097	6850.540527
8124.511118	0.102502	0.057097	6941.767578
8124.512039	0.085316	0.057097	7020.343750
8124.512958	0.085364	0.057097	7098.792969
8124.513857	0.085382	0.057097	7175.551270
8124.514747	0.085371	0.057097	7251.531738
8124.515682	0.085430	0.057097	7331.408691
8124.516595	0.085334	0.057097	7409.318848
8124.517509	0.085342	0.057097	7487.321289
8124.518403	0.085386	0.057097	7563.656250
8124.519353	0.085375	0.057097	7644.762207
8125.532637	1.064462	0.058918	484.330078
8125.533534	1.513495	0.058918	1841.934937
8125.534480	1.502999	0.058918	3263.772461
8125.535393	1.463742	0.058918	4600.168457
8125.536291	1.426871	0.058918	5881.499023
8125.537187	1.060411	0.058918	6831.627441
8125.538124	0.113617	0.058918	6938.086426
8125.539031	0.085294	0.058918	7015.448242
8125.539938	0.085371	0.058918	7092.879883
8125.540825	0.085349	0.058918	7168.584473
8125.541783	0.085452	0.058918	7250.447266
8125.542692	0.085316	0.058918	7327.999512
8125.543591	0.085408	0.058918	7404.781250
8125.544523	0.085441	0.058918	7484.412109
8125.545417	0.085485	0.058918	7560.835449
8125.546314	0.085313	0.058918	7637.360840
8126.573009	1.043723	0.056839	460.281952
8126.573902	1.512151	0.056839	1810.632690
8126.574873	1.502340	0.056839	3269.404785
8126.575780	1.463767	0.056839	4597.041504
8126.576674	1.426648	0.056839	5872.464844
8126.577609	1.001620	0.056839	6808.979492
8126.578533	0.109420	0.056839	6910.083496
8126.579448	0.085166	0.056839	6988.010254
8126.580343	0.085364	0.056839	7064.410645
8126.581280	0.085422	0.056839	7144.451172
8126.582180	0.085378	0.056839	7221.291992
8126.583081	0.085316	0.056839	7298.161621
8126.583972	0.085389	0.056839	7374.243652
8126.584919	0.085437	0.056839	7455.152344
8126.585820	0.085331	0.056839	7532.035156
8126.586710	0.085316	0.056839	7607.966309
8127.600079	1.036593	0.058664	456.100952
8127.600971	1.511873	0.058664	1804.691284
8127.601912	1.503010	0.058664	3219.023926
8127.602832	1.464316	0.058664	4566.194824
8127.603729	1.427450	0.058664	5846.617187
8127.604676	1.030415	0.058664	6822.420410
8127.605601	0.111350	0.058664	6925.419434
8127.606509	0.085302	0.058664	7002.873047
8127.607394	0.085389	0.058664	7078.442871
8127.608337	0.085422	0.058664	7158.996094
8127.609246	0.085386	0.058664	7236.611816
8127.610142	0.085353	0.058664	7313.087891
8127.611029	0.085400	0.058664	7388.837891
8127.611964	0.085437	0.058664	7468.721680
8127.612865	0.085389	0.058664	7545.657715
8127.613758	0.085433	0.058664	7621.949707
8128.635879	1.073877	0.054833	495.057281
8128.636773	1.513847	0.054833	1848.436035
8128.637726	1.502161	0.054833	3279.995117
8128.638643	1.463144	0.054833	4621.698730
8128.639546	1.425883	0.054833	5909.270508
8128.640449	1.020293	0.054833	6830.594727
8128.641392	0.107527	0.054833	6931.992676
8128.642299	0.085327	0.054833	7009.384277
8128.643192	0.085455	0.054833	7085.695801
8128.644126	0.085415	0.054833	7165.473633
8128.645033	0.085466	0.054833	7242.991699
8128.645941	0.085349	0.054833	7320.488770
8128.646831	0.085356	0.054833	7396.456055
8128.647770	0.085397	0.054833	7476.643555
8128.648671	0.085503	0.054833	7553.681641
8128.649563	0.085455	0.054833	7629.907715
8129.668063	1.062349	0.058314	479.119232
8129.668984	1.513813	0.058314	1873.341553
8129.669877	1.502952	0.058314	3215.477295
8129.670820	1.464115	0.058314	4596.137695
8129.671736	1.425879	0.058314	5902.242676
8129.672651	1.027064	0.058314	6842.006348
8129.673541	0.115836	0.058314	6945.100586
8129.674501	0.085302	0.058314	7026.990234
8129.675398	0.085408	0.058314	7103.601074
8129.676301	0.085360	0.058314	7180.681152
8129.677193	0.085360	0.058314	7256.822266
8129.678139	0.085422	0.058314	7337.631836
8129.679048	0.085345	0.058314	7415.210937
8129.679937	0.085404	0.058314	7491.135254
8129.680864	0.085433	0.058314	7570.332031
8129.681770	0.085342	0.058314	7647.651855
8130.699734	1.046396	0.053544	469.832031
8130.700631	1.513030	0.053544	1827.019775
8130.701587	1.502842	0.053544	3263.736572
8130.702502	1.463650	0.053544	4602.976074
8130.703426	1.425798	0.053544	5920.414062
8130.704328	1.022139	0.053544	6842.383301
8130.705264	0.107051	0.053544	6942.583008
8130.706176	0.085232	0.053544	7020.314453
8130.707093	0.085345	0.053544	7098.576172
8130.707978	0.085408	0.053544	7174.162109
8130.708935	0.085320	0.053544	7255.812988
8130.709835	0.085294	0.053544	7332.577637
8130.710723	0.085349	0.053544	7408.367676
8130.711661	0.085397	0.053544	7488.469727
8130.712581	0.085320	0.053544	7566.963867
8130.713495	0.085342	0.053544	7644.966309
8131.737568	1.064681	0.057165	480.171326
8131.738484	1.514271	0.057165	1867.243896
8131.739390	1.502948	0.057165	3228.914795
8131.740287	1.464653	0.057165	4542.708984
8131.741245	1.425721	0.057165	5908.549805
8131.742167	1.012665	0.057165	6842.226562
8131.743054	0.114093	0.057165	6943.427246
8131.744001	0.085287	0.057165	7024.193848
8131.744906	0.085426	0.057165	7101.504395
8131.745802	0.085353	0.057165	7177.980469
8131.746692	0.085360	0.057165	7253.951172
8131.747619	0.085367	0.057165	7333.086914
8131.748524	0.085364	0.057165	7410.341309
8131.749433	0.085320	0.057165	7487.896973
8131.750322	0.085342	0.057165	7563.765625
8131.751259	0.085510	0.057165	7643.888672
8132.766669	1.042833	0.052404	456.760956
8132.767631	1.515780	0.052404	1914.941406
8132.768547	1.501600	0.052404	3290.407227
8132.769447	1.463372	0.052404	4607.441406
8132.770383	1.425670	0.052404	5941.868652
8132.771306	0.987198	0.052404	6853.052734
8132.772204	0.109069	0.052404	6950.996094
8132.773095	0.085302	0.052404	7026.999512
8132.774028	0.085408	0.052404	7106.685059
8132.774924	0.085404	0.052404	7183.207031
8132.775831	0.085375	0.052404	7260.642090
8132.776719	0.085305	0.052404	7336.393066
8132.777671	0.085441	0.052404	7417.732422
8132.778577	0.085356	0.052404	7495.065430
8132.779468	0.085349	0.052404	7571.111328
8132.780399	0.085411	0.052404	7650.629395
8133.807058	1.055050	0.056988	470.552307
8133.808042	1.516934	0.056988	1963.214844
8133.808953	1.500498	0.056988	3330.168457
8133.809853	1.462635	0.056988	4646.540039
8133.810805	1.424469	0.056988	6002.634766
8133.811731	0.932183	0.056988	6865.835937
8133.812621	0.103374	0.056988	6957.838867
8133.813509	0.085159	0.056988	7033.459961
8133.814444	0.085397	0.056988	7113.305664
8133.815348	0.085360	0.056988	7190.471191
8133.816252	0.085353	0.056988	7267.629883
8133.817141	0.085345	0.056988	7343.501953
8133.818102	0.085459	0.056988	7425.627930
8133.819004	0.085320	0.056988	7502.586426
8133.819894	0.085375	0.056988	7578.569824
8133.820838	0.085419	0.056988	7659.205078
8134.836169	1.040079	0.051671	455.554749
8134.837141	1.514443	0.051671	1927.593750
8134.838062	1.501014	0.051671	3310.028076
8134.838967	1.462602	0.051671	4633.683594
8134.839864	1.425179	0.051671	5912.069336
8134.840818	0.970573	0.051671	6837.995605
8134.841727	0.105923	0.051671	6934.279297
8134.842625	0.085309	0.051671	7010.886719
8134.843546	0.085448	0.051671	7089.584473
8134.844448	0.085474	0.051671	7166.681641
8134.845347	0.085386	0.051671	7243.443359
8134.846233	0.085448	0.051671	7319.150391
8134.847180	0.085411	0.051671	7400.035156
8134.848086	0.085342	0.051671	7477.354980
8134.848981	0.085422	0.051671	7553.808105
8134.849876	0.085378	0.051671	7630.221680
8135.876559	1.060433	0.056710	471.892853
8135.877527	1.515927	0.056710	1939.309814
8135.878432	1.501340	0.056710	3298.022705
8135.879329	1.463236	0.056710	4610.545410
8135.880269	1.425077	0.056710	5950.117676
8135.881194	0.979098	0.056710	6855.783203
8135.882096	0.107355	0.056710	6952.617187
8135.882985	0.085302	0.056710	7028.450195
8135.883945	0.085470	0.056710	7110.501465
8135.884850	0.085400	0.056710	7187.789062
8135.885741	0.085371	0.056710	7263.854492
8135.886655	0.085415	0.056710	7341.923828
8135.887565	0.085411	0.056710	7419.647949
8135.888470	0.085349	0.056710	7496.888672
8135.889363	0.085360	0.056710	7573.115234
8135.890290	0.085485	0.056710	7652.359375
8136.902612	1.051978	0.051900	468.130005
8136.903510	1.512876	0.051900	1826.692627
8136.904457	1.502311	0.051900	3249.380859
8136.905378	1.463119	0.051900	4596.913086
8136.906298	1.425637	0.051900	5908.499512
8136.907195	1.025515	0.051900	6828.386719
8136.908163	0.105626	0.051900	6930.632812
8136.909064	0.085298	0.051900	7007.486328
8136.909956	0.085378	0.051900	7083.644043
8136.910902	0.085356	0.051900	7164.391113
8136.911803	0.085302	0.051900	7241.247559
8136.912709	0.085302	0.051900	7318.530762
8136.913599	0.085400	0.051900	7394.537109
8136.914527	0.085389	0.051900	7473.778320
8136.915439	0.085367	0.051900	7551.633301
8136.916362	0.085364	0.051900	7630.423828
8137.943551	1.105715	0.055655	542.906250
8137.944465	1.515696	0.055655	1928.252197
8137.945370	1.501399	0.055655	3287.018066
8137.946263	1.463112	0.055655	4593.576660
8137.947209	1.424773	0.055655	5941.412109
8137.948129	0.992406	0.055655	6854.425781
8137.949022	0.110032	0.055655	6952.684082
8137.949954	0.085305	0.055655	7032.188477
8137.950852	0.085448	0.055655	7108.920898
8137.951750	0.085400	0.055655	7185.610352
8137.952636	0.085404	0.055655	7261.278320
8137.953587	0.085422	0.055655	7342.515137
8137.954492	0.085430	0.055655	7419.829102
8137.955390	0.085397	0.055655	7496.515137
8137.956273	0.085430	0.055655	7571.949707
8137.957212	0.085481	0.055655	7652.216309
8138.969548	1.054530	0.050869	465.047729
8138.970511	1.515787	0.050869	1924.750854
8138.971436	1.500656	0.050869	3312.857178
8138.972338	1.462690	0.050869	4632.204102
8138.973268	1.424927	0.050869	5957.385742
8138.974191	0.974799	0.050869	6857.125000
8138.975087	0.107468	0.050869	6953.416504
8138.975974	0.085331	0.050869	7029.104980
8138.976922	0.085507	0.050869	7110.165039
8138.977827	0.085426	0.050869	7187.475586
8138.978728	0.085448	0.050869	7264.464355
8138.979615	0.085448	0.050869	7340.256836
8138.980560	0.085444	0.050869	7421.001953
8138.981472	0.085415	0.050869	7498.900391
8138.982368	0.085470	0.050869	7575.481445
8138.983303	0.085529	0.050869	7655.450684
8140.010490	1.086676	0.056215	506.391022
8140.011415	1.514813	0.056215	1907.593262
8140.012317	1.501915	0.056215	3262.320801
8140.013208	1.463734	0.056215	4566.507812
8140.014159	1.425388	0.056215	5922.051758
8140.015073	1.006611	0.056215	6842.094727
8140.015962	0.113265	0.056215	6942.787598
8140.016896	0.085313	0.056215	7022.469238
8140.017808	0.085342	0.056215	7100.300781
8140.018707	0.085404	0.056215	7177.079102
8140.019597	0.085305	0.056215	7253.000488
8140.020544	0.085452	0.056215	7333.923340
8140.021448	0.085287	0.056215	7411.022461
8140.022337	0.085367	0.056215	7486.914062
8140.023278	0.085378	0.056215	7567.255371
8140.024177	0.085397	0.056215	7644.026855
8141.036562	1.112490	0.052195	568.482544
8141.037472	1.516362	0.052195	1948.372192
8141.038379	1.500546	0.052195	3309.367187
8141.039274	1.462386	0.052195	4618.203125
8141.040237	1.423451	0.052195	5988.986328
8141.041157	0.944326	0.052195	6857.766602
8141.042056	0.103630	0.052195	6950.930176
8141.042987	0.085331	0.052195	7030.373047
8141.043887	0.085364	0.052195	7107.200195
8141.044783	0.085345	0.052195	7183.669922
8141.045670	0.085382	0.052195	7259.403809
8141.046620	0.085459	0.052195	7340.589844
8141.047518	0.085338	0.052195	7417.223633
8141.048424	0.085375	0.052195	7494.573242
8141.049313	0.085276	0.052195	7570.383301
8141.050260	0.085400	0.052195	7651.257324
8142.075850	1.044543	0.056787	456.465454
8142.076814	1.515656	0.056787	1917.557373
8142.077734	1.501029	0.056787	3298.504150
8142.078639	1.462559	0.056787	4622.119629
8142.079584	1.424568	0.056787	5968.336426
8142.080513	0.955367	0.056787	6855.872559
8142.081407	0.105509	0.056787	6950.197754
8142.082294	0.085195	0.056787	7025.766113
8142.083248	0.085349	0.056787	7107.188965
8142.084151	0.085393	0.056787	7184.298828
8142.085052	0.085422	0.056787	7261.264160
8142.085942	0.085367	0.056787	7337.241211
8142.086872	0.085488	0.056787	7416.745117
8142.087785	0.085375	0.056787	7494.692383
8142.088681	0.085360	0.056787	7571.174805
8142.089614	0.085378	0.056787	7650.833008
8143.105996	1.038706	0.053830	454.953247
8143.106958	1.515831	0.053830	1913.182983
8143.107868	1.501146	0.053830	3279.226074
8143.108805	1.461841	0.053830	4648.970703
8143.109722	1.424271	0.053830	5955.027344
8143.110675	0.925913	0.053830	6837.422363
8143.111580	0.102209	0.053830	6929.921875
8143.112468	0.085195	0.053830	7005.575195
8143.113406	0.085419	0.053830	7085.697754
8143.114312	0.085280	0.053830	7162.960937
8143.115211	0.085276	0.053830	7239.624023
8143.116106	0.085305	0.053830	7315.972168
8143.117047	0.085408	0.053830	7396.340820
8143.117950	0.085283	0.053830	7473.351562
8143.118843	0.085250	0.053830	7549.479980
8143.119765	0.085313	0.053830	7628.138184
8144.142795	1.043192	0.058096	456.918152
8144.143758	1.514147	0.058096	1915.041504
8144.144678	1.500751	0.058096	3295.731934
8144.145600	1.461980	0.058096	4643.677734
8144.146508	1.424103	0.058096	5936.763184
8144.147488	0.911052	0.058096	6829.594238
8144.148394	0.100063	0.058096	6920.251953
8144.149287	0.085228	0.058096	6996.360840
8144.150223	0.085375	0.058096	7076.271484
8144.151145	0.085356	0.058096	7154.970215
8144.152062	0.085272	0.058096	7233.165039
8144.152952	0.085320	0.058096	7309.099609
8144.153890	0.085323	0.058096	7389.132812
8144.154795	0.085276	0.058096	7466.307617
8144.155716	0.085331	0.058096	7544.897461
8144.156611	0.085323	0.058096	7621.262207
8145.175503	1.052007	0.054499	466.039032
8145.176462	1.515333	0.054499	1919.243530
8145.177384	1.501095	0.054499	3303.252930
8145.178285	1.462657	0.054499	4621.107422
8145.179219	1.424821	0.054499	5951.889648
8145.180145	0.967877	0.054499	6848.144043
8145.181050	0.105886	0.054499	6943.971191
8145.181936	0.085177	0.054499	7019.437988
8145.182870	0.085349	0.054499	7099.154297
8145.183769	0.085345	0.054499	7175.879883
8145.184671	0.085247	0.054499	7252.772461
8145.185557	0.085287	0.054499	7328.336426
8145.186499	0.085397	0.054499	7408.780273
8145.187398	0.085323	0.054499	7485.486328
8145.188289	0.085338	0.054499	7561.522461
8145.189220	0.085356	0.054499	7640.989258
8146.207698	1.040746	0.060130	460.009674
8146.208589	1.512019	0.060130	1807.218628
8146.209531	1.502574	0.060130	3222.643799
8146.210442	1.463925	0.060130	4556.279297
8146.211352	1.426809	0.060130	5854.675781
8146.212275	1.028405	0.060130	6803.893066
8146.213205	0.112141	0.060130	6908.184082
8146.214114	0.085247	0.060130	6985.673340
8146.215011	0.085382	0.060130	7062.261230
8146.215946	0.085430	0.060130	7142.138184
8146.216853	0.085378	0.060130	7219.576172
8146.217749	0.085437	0.060130	7296.127930
8146.218634	0.085323	0.060130	7371.639160
8146.219571	0.085397	0.060130	7451.655762
8146.220480	0.085430	0.060130	7529.311523
8146.221376	0.085334	0.060130	7605.770996
8147.243989	1.050875	0.056186	468.690338
8147.244885	1.512565	0.056186	1823.948242
8147.245828	1.502728	0.056186	3241.020996
8147.246746	1.463701	0.056186	4584.698730
8147.247653	1.426435	0.056186	5878.475586
8147.248554	1.053051	0.056186	6827.273926
8147.249506	0.110394	0.056186	6932.369141
8147.250413	0.085334	0.056186	7009.767578
8147.251312	0.085404	0.056186	7086.545898
8147.252238	0.085441	0.056186	7165.664062
8147.253148	0.085415	0.056186	7243.391602
8147.254054	0.085364	0.056186	7320.730957
8147.254949	0.085302	0.056186	7397.075684
8147.255876	0.085532	0.056186	7476.364258
8147.256782	0.085437	0.056186	7553.770020
8147.257686	0.085448	0.056186	7631.015137
8148.273166	1.083563	0.060855	550.450134
8148.274092	1.516501	0.060855	1954.730469
8148.275019	1.499220	0.060855	3344.507324
8148.275914	1.461401	0.060855	4652.461426
8148.276872	1.422136	0.060855	6014.868164
8148.277791	0.892753	0.060855	6835.308105
8148.278707	0.098628	0.060855	6925.651367
8148.279612	0.085225	0.060855	7002.779785
8148.280549	0.085334	0.060855	7082.738281
8148.281442	0.085313	0.060855	7158.922363
8148.282336	0.085323	0.060855	7235.201660
8148.283266	0.085353	0.060855	7314.579590
8148.284173	0.085345	0.060855	7391.987793
8148.285094	0.085323	0.060855	7470.570801
8148.285982	0.085386	0.060855	7546.393555
8148.286930	0.085430	0.060855	7627.380859
8149.312481	1.064788	0.057810	485.543091
8149.313397	1.513707	0.057810	1872.098999
8149.314310	1.502732	0.057810	3244.093262
8149.315209	1.463646	0.057810	4559.911133
8149.316166	1.425319	0.057810	5923.940918
8149.317092	0.998961	0.057810	6848.979004
8149.317976	0.112218	0.057810	6948.179687
8149.318906	0.085313	0.057810	7027.520508
8149.319821	0.085397	0.057810	7105.658691
8149.320725	0.085280	0.057810	7182.751465
8149.321615	0.085338	0.057810	7258.702637
8149.322558	0.085499	0.057810	7339.328613
8149.323454	0.085367	0.057810	7415.817871
8149.324355	0.085353	0.057810	7492.720703
8149.325250	0.085345	0.057810	7569.104980
8149.326185	0.085305	0.057810	7648.865234
8150.339550	1.054490	0.059832	472.411407
8150.340473	1.513638	0.059832	1869.499023
8150.341368	1.502889	0.059832	3214.584961
8150.342308	1.463478	0.059832	4590.253906
8150.343218	1.426036	0.059832	5887.947266
8150.344130	1.040090	0.059832	6836.509766
8150.345015	0.118638	0.059832	6941.503906
8150.345982	0.085415	0.059832	7024.100098
8150.346881	0.085404	0.059832	7100.878418
8150.347780	0.085353	0.059832	7177.610352
8150.348716	0.085411	0.059832	7257.555176
8150.349611	0.085411	0.059832	7333.998535
8150.350507	0.085444	0.059832	7410.556641
8150.351397	0.085393	0.059832	7486.556641
8150.352337	0.085331	0.059832	7566.767578
8150.353243	0.085426	0.059832	7644.163574
8151.382034	1.084193	0.057319	554.022705
8151.382948	1.516410	0.057319	1940.021362
8151.383852	1.500645	0.057319	3296.604004
8151.384748	1.462738	0.057319	4607.217285
8151.385683	1.424436	0.057319	5939.064941
8151.386609	0.974150	0.057319	6841.127930
8151.387506	0.106743	0.057319	6936.876465
8151.388422	0.085298	0.057319	7015.009277
8151.389338	0.085459	0.057319	7093.289551
8151.390244	0.085342	0.057319	7170.609375
8151.391133	0.085334	0.057319	7246.471680
8151.392068	0.085378	0.057319	7326.300293
8151.392965	0.085353	0.057319	7402.861816
8151.393864	0.085254	0.057319	7479.504883
8151.394755	0.085320	0.057319	7555.524902
8151.395691	0.085404	0.057319	7635.462891
8152.408014	1.037487	0.059284	455.456604
8152.408965	1.515165	0.059284	1896.378418
8152.409882	1.501406	0.059284	3273.167969
8152.410789	1.463024	0.059284	4600.130371
8152.411722	1.425333	0.059284	5929.966309
8152.412650	0.983624	0.059284	6842.769531
8152.413557	0.108270	0.059284	6940.970703
8152.414451	0.085247	0.059284	7017.181152
8152.415399	0.085378	0.059284	7098.120117
8152.416294	0.085331	0.059284	7174.491211
8152.417193	0.085345	0.059284	7251.216797
8152.418082	0.085287	0.059284	7327.036621
8152.419028	0.085408	0.059284	7407.832520
8152.419937	0.085378	0.059284	7485.441406
8152.420828	0.085345	0.059284	7561.484375
8152.421757	0.085338	0.059284	7640.763672
8153.449426	1.050883	0.055623	463.439209
8153.450339	1.513184	0.055623	1844.975830
8153.451238	1.503362	0.055623	3196.498047
8153.452177	1.464836	0.055623	4571.979492
8153.453098	1.426304	0.055623	5885.605469
8153.454009	1.049366	0.055623	6841.578125
8153.454896	0.120978	0.055623	6948.885254
8153.455854	0.085331	0.055623	7030.632324
8153.456756	0.085283	0.055623	7107.557617
8153.457658	0.085360	0.055623	7184.552246
8153.458546	0.085378	0.055623	7260.368164
8153.459490	0.085444	0.055623	7341.027832
8153.460394	0.085378	0.055623	7418.209961
8153.461284	0.085375	0.055623	7494.193359
8153.462213	0.085338	0.055623	7573.472656
8153.463119	0.085353	0.055623	7650.802246
8154.478023	1.050956	0.057919	460.318634
8154.478989	1.515633	0.057919	1924.420532
8154.479906	1.500681	0.057919	3300.544922
8154.480806	1.462701	0.057919	4616.976074
8154.481748	1.424528	0.057919	5958.880859
8154.482671	0.971385	0.057919	6855.469727
8154.483569	0.107091	0.057919	6951.637695
8154.484459	0.085214	0.057919	7027.478027
8154.485406	0.085364	0.057919	7108.317383
8154.486316	0.085411	0.057919	7186.041504
8154.487210	0.085371	0.057919	7262.363281
8154.488118	0.085389	0.057919	7339.896973
8154.489042	0.085386	0.057919	7418.793457
8154.489951	0.085393	0.057919	7496.415527
8154.490846	0.085298	0.057919	7572.757324
8154.491774	0.085430	0.057919	7652.036133
8155.512271	1.046752	0.056734	462.664276
8155.513193	1.513510	0.056734	1858.120117
8155.514098	1.502736	0.056734	3218.095703
8155.515039	1.463434	0.056734	4595.187012
8155.515947	1.425989	0.056734	5889.984863
8155.516860	1.040431	0.056734	6839.898437
8155.517745	0.119407	0.056734	6945.573242
8155.518690	0.085353	0.056734	7026.231445
8155.519590	0.085371	0.056734	7103.065430
8155.520483	0.085426	0.056734	7179.351074
8155.521413	0.085463	0.056734	7258.831543
8155.522329	0.085459	0.056734	7337.111816
8155.523238	0.085283	0.056734	7414.634277
8155.524137	0.085360	0.056734	7491.373047
8155.525073	0.085433	0.056734	7571.338867
8155.525972	0.085455	0.056734	7648.163086
8156.548109	1.074719	0.056130	544.882629
8156.549025	1.515970	0.056130	1933.511475
8156.549928	1.500623	0.056130	3288.573730
8156.550824	1.462822	0.056130	4599.262695
8156.551777	1.423865	0.056130	5956.206055
8156.552698	0.952379	0.056130	6833.347168
8156.553604	0.103627	0.056130	6927.232910
8156.554492	0.085214	0.056130	7002.902832
8156.555435	0.085386	0.056130	7083.421387
8156.556344	0.085345	0.056130	7161.000488
8156.557236	0.085327	0.056130	7237.112305
8156.558171	0.085393	0.056130	7316.954590
8156.559069	0.085459	0.056130	7393.696777
8156.559968	0.085298	0.056130	7470.379395
8156.560855	0.085239	0.056130	7545.986816
8156.561797	0.085415	0.056130	7626.447754
8157.575117	1.055555	0.059168	466.555511
8157.576114	1.516659	0.059168	1978.664429
8157.577023	1.499571	0.059168	3341.774902
8157.577923	1.461570	0.059168	4657.187500
8157.578862	1.423718	0.059168	5994.059082
8157.579800	0.919860	0.059168	6856.887695
8157.580727	0.098954	0.059168	6948.618164
8157.581616	0.085206	0.059168	7024.366699
8157.582563	0.085393	0.059168	7105.233887
8157.583465	0.085393	0.059168	7182.258301
8157.584374	0.085371	0.059168	7259.860840
8157.585269	0.085411	0.059168	7336.304199
8157.586227	0.085327	0.059168	7418.047852
8157.587128	0.085371	0.059168	7494.967285
8157.588019	0.085400	0.059168	7571.059082
8157.588954	0.085455	0.059168	7650.959961
8158.618121	1.113527	0.056203	561.217407
8158.619041	1.516121	0.056203	1956.048462
8158.619944	1.500688	0.056203	3311.170166
8158.620836	1.462225	0.056203	4615.475098
8158.621780	1.423898	0.056203	5959.634766
8158.622706	0.966112	0.056203	6854.254395
8158.623596	0.107018	0.056203	6949.500488
8158.624527	0.085265	0.056203	7028.882324
8158.625436	0.085331	0.056203	7106.448242
8158.626340	0.085334	0.056203	7183.590820
8158.627229	0.085276	0.056203	7259.400879
8158.628180	0.085349	0.056203	7340.567871
8158.629088	0.085323	0.056203	7418.041504
8158.629988	0.085364	0.056203	7494.869141
8158.630871	0.085342	0.056203	7570.226074
8158.631801	0.085400	0.056203	7649.648437
8159.637446	1.043361	0.062604	454.905212
8159.638413	1.514802	0.062604	1919.718994
8159.639331	1.500879	0.062604	3297.525879
8159.640229	1.462786	0.062604	4611.107422
8159.641167	1.424872	0.062604	5947.637207
8159.642098	0.969814	0.062604	6850.534668
8159.643005	0.106011	0.062604	6946.686523
8159.643896	0.085162	0.062604	7022.566406
8159.644836	0.085389	0.062604	7102.832520
8159.645738	0.085283	0.062604	7179.757812
8159.646636	0.085345	0.062604	7256.397949
8159.647523	0.085331	0.062604	7332.086426
8159.648454	0.085349	0.062604	7411.546387
8159.649360	0.085287	0.062604	7488.816406
8159.650249	0.085327	0.062604	7564.672363
8159.651181	0.085404	0.062604	7644.269043
8160.688652	1.081403	0.055562	546.108337
8160.689567	1.516011	0.055562	1933.258301
8160.690491	1.499623	0.055562	3318.909668
8160.691398	1.461449	0.055562	4644.443848
8160.692357	1.422367	0.055562	6008.493652
8160.693281	0.906504	0.055562	6846.103516
8160.694167	0.101272	0.055562	6935.830566
8160.695087	0.085265	0.055562	7014.274414
8160.696001	0.085276	0.055562	7092.216797
8160.696900	0.085302	0.055562	7168.902832
8160.697787	0.085323	0.055562	7244.584961
8160.698723	0.085309	0.055562	7324.434082
8160.699634	0.085291	0.055562	7402.133789
8160.700550	0.085276	0.055562	7480.246582
8160.701444	0.085236	0.055562	7556.447266
8160.702402	0.085349	0.055562	7638.211914
8161.701838	1.046103	0.062249	461.331635
8161.702736	1.512198	0.062249	1819.285889
8161.703630	1.504567	0.062249	3164.368652
8161.704581	1.464543	0.062249	4557.149414
8161.705489	1.427146	0.062249	5852.998047
8161.706389	1.082391	0.062249	6827.150391
8161.707282	0.126562	0.062249	6940.170898
8161.708224	0.085316	0.062249	7020.538574
8161.709125	0.085331	0.062249	7097.421875
8161.710018	0.085331	0.062249	7173.622070
8161.710953	0.085452	0.062249	7253.519531
8161.711859	0.085411	0.062249	7330.902344
8161.712757	0.085309	0.062249	7407.509766
8161.713644	0.085345	0.062249	7483.211426
8161.714588	0.085389	0.062249	7563.818848
8161.715491	0.085393	0.062249	7640.928711
8162.758617	1.060327	0.056384	472.905914
8162.759526	1.513275	0.056384	1848.473022
8162.760419	1.502952	0.056384	3190.608887
8162.761387	1.463002	0.056384	4606.794434
8162.762298	1.425458	0.056384	5905.386230
8162.763211	1.026372	0.056384	6842.463867
8162.764140	0.114767	0.056384	6949.082031
8162.765040	0.085276	0.056384	7025.830078
8162.765936	0.085305	0.056384	7102.263672
8162.766821	0.085378	0.056384	7177.823730
8162.767751	0.085389	0.056384	7257.235840
8162.768652	0.085404	0.056384	7334.185059
8162.769550	0.085371	0.056384	7410.848145
8162.770435	0.085305	0.056384	7486.343262
8162.771389	0.085433	0.056384	7567.846680
8162.772286	0.085426	0.056384	7644.473633
8163.766227	1.051509	0.060835	471.075928
8163.767123	1.511906	0.060835	1825.743286
8163.768098	1.501011	0.060835	3289.228760
8163.769021	1.462108	0.060835	4638.754395
8163.769918	1.424608	0.060835	5916.627930
8163.770873	0.961465	0.060835	6834.827148
8163.771773	0.105916	0.060835	6930.151367
8163.772674	0.085294	0.060835	7007.001465
8163.773564	0.085294	0.060835	7082.913086
8163.774519	0.085389	0.060835	7164.459961
8163.775430	0.085378	0.060835	7242.239746
8163.776330	0.085302	0.060835	7319.011230
8163.777253	0.085261	0.060835	7397.707520
8163.778151	0.085375	0.060835	7474.374023
8163.779059	0.085382	0.060835	7551.900879
8163.779950	0.085367	0.060835	7627.963379
8164.829140	1.039050	0.058624	460.299255
8164.830042	1.512751	0.058624	1824.801025
8164.830995	1.502600	0.058624	3256.778809
8164.831904	1.463383	0.058624	4586.993652
8164.832814	1.426252	0.058624	5884.883301
8164.833718	1.052402	0.058624	6836.254883
8164.834668	0.110878	0.058624	6941.588867
8164.835567	0.085280	0.058624	7018.255371
8164.836466	0.085386	0.058624	7095.017090
8164.837358	0.085356	0.058624	7171.155273
8164.838303	0.085477	0.058624	7251.931152
8164.839204	0.085353	0.058624	7328.833984
8164.840094	0.085345	0.058624	7404.791504
8164.841032	0.085371	0.058624	7484.869629
8164.841943	0.085389	0.058624	7562.659180
8164.842842	0.085313	0.058624	7639.354980
8165.831632	1.049396	0.059719	465.931732
8165.832532	1.512675	0.059719	1827.338867
8165.833426	1.503622	0.059719	3171.576660
8165.834384	1.463979	0.059719	4574.068848
8165.835300	1.426366	0.059719	5880.620117
8165.836211	1.049377	0.059719	6836.603027
8165.837150	0.118173	0.059719	6947.566895
8165.838045	0.085298	0.059719	7023.908691
8165.838944	0.085356	0.059719	7100.644043
8165.839829	0.085411	0.059719	7176.232910
8165.840763	0.085488	0.059719	7256.079102
8165.841670	0.085466	0.059719	7333.597168
8165.842573	0.085378	0.059719	7410.693848
8165.843461	0.085334	0.059719	7486.470703
8165.844416	0.085521	0.059719	7568.143555
8165.845323	0.085334	0.059719	7645.541992
8166.899658	1.035655	0.059876	449.474487
8166.900623	1.513711	0.059876	1910.205444
8166.901534	1.501373	0.059876	3277.956543
8166.902435	1.463027	0.059876	4596.144043
8166.903335	1.425952	0.059876	5879.500977
8166.904298	0.983452	0.059876	6826.565430
8166.905205	0.107629	0.059876	6924.185059
8166.906104	0.085287	0.059876	7000.857910
8166.907041	0.085408	0.059876	7080.884766
8166.907946	0.085444	0.059876	7158.211914
8166.908849	0.085441	0.059876	7235.364746
8166.909738	0.085411	0.059876	7311.295410
8166.910681	0.085448	0.059876	7391.873047
8166.911579	0.085382	0.059876	7468.546387
8166.912476	0.085331	0.059876	7545.087891
8166.913365	0.085422	0.059876	7621.028320
8167.898078	1.057306	0.057202	472.615753
8167.898977	1.512664	0.057202	1832.500244
8167.899871	1.503424	0.057202	3176.561523
8167.900840	1.463500	0.057202	4594.692871
8167.901755	1.425802	0.057202	5899.301758
8167.902661	1.042225	0.057202	6843.558105
8167.903595	0.117488	0.057202	6953.291504
8167.904496	0.085228	0.057202	7030.082031
8167.905394	0.085378	0.057202	7106.751953
8167.906285	0.085386	0.057202	7182.830566
8167.907223	0.085356	0.057202	7262.895020
8167.908123	0.085430	0.057202	7339.781738
8167.909023	0.085345	0.057202	7416.592773
8167.909915	0.085367	0.057202	7492.740723
8167.910868	0.085426	0.057202	7574.151855
8167.911769	0.085422	0.057202	7651.117187
8168.969160	1.032693	0.058664	448.188660
8168.970110	1.511646	0.058664	1884.251953
8168.971033	1.501399	0.058664	3270.043213
8168.971938	1.463082	0.058664	4594.132812
8168.972836	1.426260	0.058664	5874.914062
8168.973801	0.987495	0.058664	6827.846680
8168.974696	0.109215	0.058664	6925.594238
8168.975594	0.085272	0.058664	7002.168457
8168.976481	0.085378	0.058664	7077.898926
8168.977421	0.085419	0.058664	7158.192383
8168.978319	0.085397	0.058664	7234.878418
8168.979216	0.085298	0.058664	7311.390625
8168.980151	0.085415	0.058664	7391.253906
8168.981058	0.085353	0.058664	7468.668945
8168.981959	0.085283	0.058664	7545.509277
8168.982847	0.085298	0.058664	7621.253906
8169.964546	1.095117	0.054809	543.178162
8169.965447	1.515033	0.054809	1908.222900
8169.966366	1.501062	0.054809	3287.698730
8169.967271	1.462258	0.054809	4611.042480
8169.968231	1.423429	0.054809	5977.534180
8169.969148	0.952570	0.054809	6851.040527
8169.970044	0.104601	0.054809	6944.762695
8169.970984	0.085239	0.054809	7024.887695
8169.971898	0.085302	0.054809	7102.853516
8169.972822	0.085342	0.054809	7181.709473
8169.973708	0.085305	0.054809	7257.290039
8169.974644	0.085367	0.054809	7337.193848
8169.975542	0.085364	0.054809	7413.850586
8169.976458	0.085367	0.054809	7492.047363
8169.977357	0.085422	0.054809	7568.842285
8169.978316	0.085364	0.054809	7650.706055
8171.036114	1.041921	0.057995	461.571167
8171.037011	1.512257	0.057995	1818.065796
8171.037961	1.502241	0.057995	3245.194824
8171.038872	1.463529	0.057995	4578.469727
8171.039771	1.426747	0.057995	5861.115234
8171.040696	1.030005	0.057995	6813.869629
8171.041643	0.110314	0.057995	6918.336914
8171.042541	0.085243	0.057995	6994.885254
8171.043430	0.085389	0.057995	7070.796387
8171.044367	0.085375	0.057995	7150.792480
8171.045265	0.085408	0.057995	7227.488770
8171.046177	0.085400	0.057995	7305.374023
8171.047072	0.085294	0.057995	7381.712402
8171.048024	0.085569	0.057995	7463.173828
8171.048927	0.085375	0.057995	7540.267090
8171.049815	0.085430	0.057995	7616.128418
8172.031945	1.036062	0.053866	453.795166
8172.032838	1.511283	0.053866	1803.370850
8172.033810	1.501710	0.053866	3263.033203
8172.034719	1.463221	0.053866	4593.101562
8172.035619	1.426344	0.053866	5876.811035
8172.036583	0.990828	0.053866	6831.968750
8172.037486	0.109545	0.053866	6930.887695
8172.038381	0.085287	0.053866	7007.219238
8172.039271	0.085393	0.053866	7083.219238
8172.040203	0.085503	0.053866	7162.908203
8172.041106	0.085547	0.053866	7240.157227
8172.042000	0.085444	0.053866	7316.544434
8172.042890	0.085386	0.053866	7392.537598
8172.043834	0.085474	0.053866	7473.224609
8172.044746	0.085411	0.053866	7551.119629
8172.045637	0.085389	0.053866	7627.201660
8173.106122	1.046459	0.055788	459.395386
8173.107082	1.514784	0.055788	1913.587891
8173.107998	1.500934	0.055788	3288.443359
8173.108901	1.463038	0.055788	4609.566895
8173.109844	1.424740	0.055788	5953.096680
8173.110762	0.976479	0.055788	6849.504883
8173.111661	0.107197	0.055788	6945.875000
8173.112552	0.085316	0.055788	7021.891602
8173.113500	0.085510	0.055788	7102.955078
8173.114397	0.085426	0.055788	7179.582031
8173.115300	0.085521	0.055788	7256.807617
8173.116198	0.085430	0.055788	7333.523437
8173.117118	0.085503	0.055788	7412.186035
8173.118030	0.085452	0.055788	7490.118164
8173.118927	0.085444	0.055788	7566.761719
8173.119859	0.085441	0.055788	7646.392578
8174.099954	1.049161	0.054370	500.450012
8174.100886	1.515787	0.054370	1913.163818
8174.101795	1.501033	0.054370	3277.602539
8174.102689	1.463005	0.054370	4585.529297
8174.103641	1.424755	0.054370	5941.895508
8174.104566	0.970536	0.054370	6839.641113
8174.105454	0.108135	0.054370	6935.664551
8174.106403	0.085291	0.054370	7016.605469
8174.107298	0.085419	0.054370	7093.055176
8174.108199	0.085353	0.054370	7169.958008
8174.109087	0.085345	0.054370	7245.744629
8174.110017	0.085389	0.054370	7325.156738
8174.110920	0.085419	0.054370	7402.290039
8174.111821	0.085415	0.054370	7479.249023
8174.112707	0.085356	0.054370	7554.875000
8174.113650	0.085455	0.054370	7635.459473
8175.172556	1.050908	0.054438	461.348694
8175.173531	1.516113	0.054438	1939.559082
8175.174447	1.500498	0.054438	3314.015137
8175.175348	1.462376	0.054438	4631.615234
8175.176297	1.424081	0.054438	5983.067871
8175.177209	0.962688	0.054438	6861.039062
8175.178102	0.106901	0.054438	6956.501465
8175.178985	0.085258	0.054438	7031.783691
8175.179916	0.085496	0.054438	7111.379883
8175.180819	0.085444	0.054438	7188.536133
8175.181725	0.085459	0.054438	7265.961914
8175.182616	0.085433	0.054438	7342.083008
8175.183559	0.085503	0.054438	7422.712402
8175.184465	0.085397	0.054438	7500.082031
8175.185360	0.085459	0.054438	7576.567871
8175.186301	0.085459	0.054438	7656.984863
8176.168906	1.039907	0.054587	456.519257
8176.169869	1.515322	0.054587	1915.774658
8176.170780	1.500842	0.054587	3283.041992
8176.171692	1.462518	0.054587	4616.858887
8176.172600	1.425117	0.054587	5910.865234
8176.173540	0.986371	0.054587	6838.053711
8176.174446	0.108519	0.054587	6936.372070
8176.175335	0.085291	0.054587	7012.195312
8176.176272	0.085503	0.054587	7092.311523
8176.177165	0.085382	0.054587	7168.557617
8176.178067	0.085400	0.054587	7245.588867
8176.178954	0.085327	0.054587	7321.273926
8176.179889	0.085470	0.054587	7401.188477
8176.180796	0.085353	0.054587	7478.603516
8176.181692	0.085382	0.054587	7555.105957
8176.182597	0.085499	0.054587	7632.482910
8177.239498	1.048564	0.052239	458.222656
8177.240477	1.516392	0.052239	1942.770020
8177.241384	1.500688	0.052239	3303.894531
8177.242279	1.462661	0.052239	4612.976562
8177.243212	1.425011	0.052239	5942.511719
8177.244133	0.984573	0.052239	6849.303223
8177.245030	0.109281	0.052239	6947.328125
8177.245917	0.085269	0.052239	7022.961426
8177.246863	0.085426	0.052239	7103.774414
8177.247758	0.085360	0.052239	7180.171875
8177.248652	0.085378	0.052239	7256.500000
8177.249539	0.085345	0.052239	7332.201660
8177.250501	0.085448	0.052239	7414.402832
8177.251401	0.085441	0.052239	7491.299316
8177.252291	0.085441	0.052239	7567.341309
8177.253225	0.085507	0.052239	7647.204590
8178.238927	1.058075	0.055643	469.785278
8178.239891	1.515348	0.055643	1930.580566
8178.240816	1.499868	0.055643	3317.958496
8178.241725	1.461888	0.055643	4646.814941
8178.242675	1.423531	0.055643	5999.169922
8178.243608	0.923580	0.055643	6860.870117
8178.244508	0.101543	0.055643	6952.258789
8178.245396	0.085287	0.055643	7027.993652
8178.246338	0.085397	0.055643	7108.437500
8178.247251	0.085422	0.055643	7186.428223
8178.248143	0.085364	0.055643	7262.572754
8178.249066	0.085360	0.055643	7341.360352
8178.249952	0.085430	0.055643	7417.051270
8178.250895	0.085444	0.055643	7497.625488
8178.251798	0.085477	0.055643	7574.811523
8178.252719	0.085422	0.055643	7653.485352
8179.306462	1.061188	0.050547	475.412109
8179.307383	1.513363	0.050547	1869.219482
8179.308288	1.502278	0.050547	3228.780762
8179.309222	1.463558	0.050547	4595.744141
8179.310139	1.425564	0.050547	5902.986328
8179.311054	1.024010	0.050547	6839.955566
8179.311941	0.116455	0.050547	6943.250977
8179.312900	0.085400	0.050547	7025.149902
8179.313800	0.085466	0.050547	7102.069336
8179.314701	0.085481	0.050547	7179.087891
8179.315605	0.085433	0.050547	7256.319824
8179.316537	0.085485	0.050547	7335.991699
8179.317448	0.085382	0.050547	7413.774902
8179.318344	0.085430	0.050547	7490.319824
8179.319271	0.085397	0.050547	7569.482422
8179.320182	0.085430	0.050547	7647.309082
8180.308428	1.041405	0.056602	459.259583
8180.309416	1.516776	0.056602	1957.834473
8180.310325	1.499963	0.056602	3321.301270
8180.311235	1.461625	0.056602	4651.379883
8180.312134	1.424249	0.056602	5931.780273
8180.313088	0.952185	0.056602	6840.165039
8180.313996	0.104821	0.056602	6935.342285
8180.314884	0.085345	0.056602	7011.128906
8180.315813	0.085474	0.056602	7090.533691
8180.316720	0.085477	0.056602	7168.061523
8180.317621	0.085415	0.056602	7245.020508
8180.318508	0.085386	0.056602	7320.757812
8180.319462	0.085485	0.056602	7402.310059
8180.320357	0.085474	0.056602	7478.809082
8180.321256	0.085441	0.056602	7555.620117
8180.322157	0.085400	0.056602	7632.565918
8181.371334	1.035839	0.050692	449.554016
8181.372292	1.511961	0.050692	1898.012207
8181.373216	1.500978	0.050692	3284.915771
8181.374125	1.462698	0.050692	4614.507812
8181.375017	1.425861	0.050692	5886.375488
8181.375987	0.975381	0.050692	6832.495117
8181.376882	0.107856	0.050692	6929.026855
8181.377786	0.085316	0.050692	7006.152832
8181.378676	0.085415	0.050692	7082.172363
8181.379609	0.085496	0.050692	7161.939941
8181.380523	0.085433	0.050692	7240.025879
8181.381419	0.085408	0.050692	7316.551270
8181.382354	0.085499	0.050692	7396.493164
8181.383258	0.085430	0.050692	7473.721680
8181.384162	0.085419	0.050692	7550.940430
8181.385051	0.085408	0.050692	7626.867676
8182.377929	1.036553	0.056912	452.973572
8182.378916	1.512338	0.056912	1945.650635
8182.379829	1.499828	0.056912	3314.993652
8182.380741	1.461335	0.056912	4647.731445
8182.381637	1.424322	0.056912	5923.924316
8182.382592	0.955598	0.056912	6836.520508
8182.383493	0.104568	0.056912	6930.736328
8182.384393	0.085250	0.056912	7007.461426
8182.385298	0.085426	0.056912	7084.771973
8182.386226	0.085430	0.056912	7164.050781
8182.387137	0.085375	0.056912	7241.827148
8182.388029	0.085313	0.056912	7317.925781
8182.388969	0.085463	0.056912	7398.260742
8182.389869	0.085367	0.056912	7475.091309
8182.390774	0.085389	0.056912	7552.368652
8182.391666	0.085353	0.056912	7628.503418
8183.437268	1.039424	0.052920	461.504181
8183.438170	1.512290	0.052920	1825.589722
8183.439064	1.503387	0.052920	3169.618164
8183.440036	1.462804	0.052920	4591.463867
8183.440952	1.425465	0.052920	5897.189941
8183.441858	1.035425	0.052920	6835.284668
8183.442778	0.116982	0.052920	6942.908691
8183.443700	0.085228	0.052920	7021.489258
8183.444593	0.085331	0.052920	7097.689453
8183.445481	0.085397	0.052920	7173.521973
8183.446422	0.085492	0.052920	7253.969727
8183.447331	0.085404	0.052920	7331.602051
8183.448248	0.085386	0.052920	7409.900879
8183.449147	0.085389	0.052920	7486.666016
8183.450104	0.085415	0.052920	7568.408203
8183.451006	0.085430	0.052920	7645.465820
8184.446951	1.070013	0.059321	493.276184
8184.447845	1.512982	0.059321	1845.882324
8184.448813	1.501044	0.059321	3298.892578
8184.449714	1.462236	0.059321	4616.367187
8184.450620	1.425216	0.059321	5907.612793
8184.451520	1.022230	0.059321	6827.620117
8184.452472	0.106143	0.059321	6928.667969
8184.453380	0.085382	0.059321	7006.194824
8184.454274	0.085419	0.059321	7082.559082
8184.455194	0.085444	0.059321	7161.167969
8184.456096	0.085415	0.059321	7238.212402
8184.457003	0.085422	0.059321	7315.690430
8184.457893	0.085437	0.059321	7391.729492
8184.458826	0.085448	0.059321	7471.452637
8184.459736	0.085488	0.059321	7549.247070
8184.460635	0.085466	0.059321	7626.081055
8185.501125	1.030455	0.054966	444.126190
8185.502086	1.513257	0.054966	1898.365967
8185.503002	1.501088	0.054966	3273.362305
8185.503916	1.462522	0.054966	4610.107422
8185.504811	1.425370	0.054966	5885.813477
8185.505775	0.974916	0.054966	6825.632324
8185.506677	0.107589	0.054966	6922.677734
8185.507572	0.085331	0.054966	6999.048828
8185.508521	0.085463	0.054966	7080.152832
8185.509418	0.085378	0.054966	7156.737305
8185.510321	0.085386	0.054966	7233.840820
8185.511211	0.085386	0.054966	7309.833984
8185.512154	0.085433	0.054966	7390.397461
8185.513056	0.085441	0.054966	7467.464844
8185.513958	0.085393	0.054966	7544.489258
8185.514844	0.085433	0.054966	7620.183105
8186.518527	1.086398	0.059462	534.507690
8186.519451	1.515721	0.059462	1935.034302
8186.520360	1.500773	0.059462	3299.236816
8186.521255	1.462361	0.059462	4608.049805
8186.522223	1.423055	0.059462	5985.567383
8186.523145	0.936680	0.059462	6849.186035
8186.524037	0.103667	0.059462	6941.657227
8186.524956	0.085371	0.059462	7020.113281
8186.525864	0.085499	0.059462	7097.746582
8186.526771	0.085393	0.059462	7175.198242
8186.527661	0.085441	0.059462	7251.240234
8186.528588	0.085426	0.059462	7330.430176
8186.529495	0.085452	0.059462	7407.935059
8186.530397	0.085408	0.059462	7484.972656
8186.531284	0.085433	0.059462	7560.751953
8186.532232	0.085543	0.059462	7641.846680
8187.563980	1.036776	0.055590	454.107910
8187.564878	1.511763	0.055590	1811.670898
8187.565834	1.502512	0.055590	3248.072510
8187.566744	1.462958	0.055590	4579.364258
8187.567669	1.425476	0.055590	5897.929687
8187.568578	0.998588	0.055590	6805.645996
8187.569523	0.107754	0.055590	6907.473633
8187.570423	0.085305	0.055590	6984.248047
8187.571316	0.085404	0.055590	7060.513672
8187.572264	0.085496	0.055590	7141.563477
8187.573160	0.085481	0.055590	7218.154297
8187.574061	0.085400	0.055590	7295.100098
8187.574954	0.085430	0.055590	7371.388672
8187.575901	0.085536	0.055590	7452.391113
8187.576803	0.085477	0.055590	7529.491699
8187.577693	0.085430	0.055590	7605.523926
8188.589586	1.073024	0.058080	546.169067
8188.590481	1.515553	0.058080	1902.588989
8188.591406	1.500055	0.058080	3290.139648
8188.592309	1.461771	0.058080	4610.119141
8188.593262	1.422982	0.058080	5966.221191
8188.594178	0.922745	0.058080	6811.456055
8188.595107	0.099888	0.058080	6904.251953
8188.595998	0.085338	0.058080	6980.288086
8188.596949	0.085382	0.058080	7061.486328
8188.597869	0.085393	0.058080	7140.047852
8188.598759	0.085441	0.058080	7216.089844
8188.599705	0.085367	0.058080	7296.847656
8188.600605	0.085360	0.058080	7373.671875
8188.601522	0.085382	0.058080	7451.967285
8188.602423	0.085367	0.058080	7528.883301
8188.603365	0.085334	0.058080	7609.268555
8189.628888	1.058734	0.054938	475.371582
8189.629814	1.513682	0.054938	1877.040771
8189.630723	1.501937	0.054938	3242.301758
8189.631663	1.462562	0.054938	4617.110352
8189.632578	1.424821	0.054938	5920.821289
8189.633491	1.013438	0.054938	6846.089844
8189.634379	0.114320	0.054938	6947.605957
8189.635340	0.085360	0.054938	7029.637207
8189.636247	0.085342	0.054938	7107.041992
8189.637140	0.085371	0.054938	7183.278320
8189.638081	0.085448	0.054938	7263.685059
8189.638983	0.085485	0.054938	7340.791992
8189.639891	0.085356	0.054938	7418.295410
8189.640777	0.085393	0.054938	7493.953613
8189.641722	0.085459	0.054938	7574.712402
8189.642623	0.085364	0.054938	7651.625000
8190.660046	1.039878	0.056493	457.546265
8190.660943	1.511466	0.056493	1813.331299
8190.661912	1.501340	0.056493	3268.129883
8190.662828	1.462749	0.056493	4608.007812
8190.663731	1.425406	0.056493	5895.149902
8190.664681	0.993794	0.056493	6839.253906
8190.665575	0.110980	0.056493	6938.470215
8190.666470	0.085298	0.056493	7014.812012
8190.667357	0.085386	0.056493	7090.549316
8190.668297	0.085408	0.056493	7170.832520
8190.669199	0.085455	0.056493	7247.913086
8190.670101	0.085353	0.056493	7324.901367
8190.670991	0.085411	0.056493	7400.917480
8190.671955	0.085492	0.056493	7483.331543
8190.672859	0.085433	0.056493	7560.563477
8190.673753	0.085488	0.056493	7636.990234
8191.694284	1.052479	0.055897	463.090820
8191.695259	1.515820	0.055897	1941.015747
8191.696174	1.499934	0.055897	3313.455566
8191.697074	1.462126	0.055897	4629.369141
8191.698022	1.423960	0.055897	5979.283203
8191.698941	0.960256	0.055897	6861.758789
8191.699832	0.106505	0.055897	6956.654785
8191.700722	0.085258	0.055897	7032.534180
8191.701662	0.085415	0.055897	7112.824219
8191.702573	0.085356	0.055897	7190.583984
8191.703473	0.085415	0.055897	7267.457520
8191.704387	0.085400	0.055897	7345.513672
8191.705313	0.085521	0.055897	7424.706543
8191.706217	0.085342	0.055897	7501.855469
8191.707106	0.085269	0.055897	7577.659180
8191.708036	0.085444	0.055897	7657.122559
8192.730059	1.039380	0.055828	455.248383
8192.730986	1.511697	0.055828	1856.591309
8192.731927	1.501121	0.055828	3269.145752
8192.732849	1.462299	0.055828	4617.384766
8192.733756	1.425048	0.055828	5909.902832
8192.734708	0.976080	0.055828	6839.131348
8192.735600	0.108175	0.055828	6935.623535
8192.736502	0.085217	0.055828	7012.489746
8192.737390	0.085415	0.055828	7088.338379
8192.738335	0.085444	0.055828	7169.083496
8192.739237	0.085367	0.055828	7246.084961
8192.740134	0.085386	0.055828	7322.675781
8192.741058	0.085386	0.055828	7401.572266
8192.741961	0.085441	0.055828	7478.725098
8192.742866	0.085353	0.055828	7555.969238
8192.743765	0.085415	0.055828	7632.757324
8193.760204	1.036230	0.057536	453.868927
8193.761097	1.511235	0.057536	1803.402100
8193.762070	1.501414	0.057536	3264.277344
8193.762980	1.462800	0.057536	4595.425781
8193.763879	1.425989	0.057536	5877.389648
8193.764844	0.986719	0.057536	6829.573242
8193.765750	0.109061	0.057536	6928.382812
8193.766642	0.085247	0.057536	7004.422852
8193.767532	0.085382	0.057536	7080.413086
8193.768460	0.085433	0.057536	7159.695312
8193.769376	0.085334	0.057536	7237.861816
8193.770278	0.085415	0.057536	7314.906250
8193.771165	0.085415	0.057536	7390.669434
8193.772113	0.085382	0.057536	7471.611816
8193.773016	0.085386	0.057536	7548.715332
8193.773902	0.085415	0.057536	7624.393066
8194.798597	1.090268	0.056843	540.773193
8194.799519	1.515352	0.056843	1937.927368
8194.800453	1.499495	0.056843	3338.455566
8194.801352	1.460991	0.056843	4651.886719
8194.802311	1.422188	0.056843	6015.764648
8194.803215	0.929037	0.056843	6855.614258
8194.804103	0.103352	0.056843	6947.391113
8194.805030	0.085360	0.056843	7026.520020
8194.805956	0.085386	0.056843	7105.587402
8194.806860	0.085313	0.056843	7182.709961
8194.807752	0.085448	0.056843	7258.929687
8194.808684	0.085470	0.056843	7338.587891
8194.809600	0.085415	0.056843	7416.828125
8194.810518	0.085477	0.056843	7495.296387
8194.811407	0.085474	0.056843	7571.282227
8194.812364	0.085426	0.056843	7653.035156
8195.826633	1.037864	0.060275	454.584381
8195.827597	1.512491	0.060275	1912.626099
8195.828497	1.501069	0.060275	3263.588379
8195.829407	1.462745	0.060275	4594.686523
8195.830305	1.425582	0.060275	5874.859375
8195.831253	1.009069	0.060275	6831.456543
8195.832156	0.111530	0.060275	6932.167969
8195.833049	0.085302	0.060275	7008.342285
8195.833941	0.085353	0.060275	7084.477051
8195.834878	0.085441	0.060275	7164.535156
8195.835796	0.085291	0.060275	7242.832031
8195.836689	0.085356	0.060275	7319.055176
8195.837621	0.085338	0.060275	7398.590332
8195.838516	0.085426	0.060275	7475.046387
8195.839416	0.085400	0.060275	7551.906738
8195.840303	0.085360	0.060275	7627.621094
8196.867019	1.050216	0.056992	461.044861
8196.867978	1.515256	0.056992	1914.175781
8196.868899	1.500194	0.056992	3295.854492
8196.869804	1.462321	0.056992	4619.254883
8196.870741	1.424495	0.056992	5954.006348
8196.871663	0.973308	0.056992	6851.396484
8196.872563	0.106307	0.056992	6947.073242
8196.873452	0.085309	0.056992	7022.912598
8196.874392	0.085342	0.056992	7103.133789
8196.875296	0.085422	0.056992	7180.355469
8196.876198	0.085400	0.056992	7257.386719
8196.877088	0.085444	0.056992	7333.432129
8196.878021	0.085518	0.056992	7413.220215
8196.878932	0.085386	0.056992	7491.006836
8196.879824	0.085404	0.056992	7567.187012
8196.880761	0.085360	0.056992	7647.169434
8197.894622	1.051256	0.061375	467.808960
8197.895550	1.513334	0.061375	1872.182739
8197.896449	1.502117	0.061375	3222.585693
8197.897382	1.463159	0.061375	4587.713379
8197.898300	1.425128	0.061375	5895.980957
8197.899216	1.023970	0.061375	6833.937500
8197.900109	0.115356	0.061375	6936.950684
8197.901057	0.085291	0.061375	7017.806152
8197.901962	0.085433	0.061375	7095.123535
8197.902859	0.085426	0.061375	7171.750488
8197.903777	0.085426	0.061375	7250.171387
8197.904708	0.085430	0.061375	7329.706543
8197.905622	0.085353	0.061375	7407.718750
8197.906510	0.085345	0.061375	7483.505371
8197.907436	0.085437	0.061375	7562.620117
8197.908338	0.085408	0.061375	7639.657715
8198.933455	1.052673	0.058144	467.386963
8198.934437	1.516263	0.058144	1956.357544
8198.935351	1.499685	0.058144	3327.069824
8198.936256	1.461621	0.058144	4649.836914
8198.937193	1.423524	0.058144	5983.679199
8198.938110	0.954309	0.058144	6858.780762
8198.939005	0.105593	0.058144	6953.286621
8198.939890	0.085294	0.058144	7028.771973
8198.940844	0.085393	0.058144	7110.236816
8198.941744	0.085375	0.058144	7187.074219
8198.942645	0.085400	0.058144	7264.020020
8198.943533	0.085356	0.058144	7339.816406
8198.944491	0.085430	0.058144	7421.658203
8198.945395	0.085345	0.058144	7498.810547
8198.946289	0.085353	0.058144	7575.115723
8198.947222	0.085426	0.058144	7654.818359
8199.962593	1.077832	0.060553	497.958374
8199.963533	1.514820	0.060553	1921.889648
8199.964437	1.500410	0.060553	3278.260498
8199.965409	1.460310	0.060553	4697.681641
8199.966306	1.423271	0.060553	5974.355957
8199.967206	0.977831	0.060553	6854.403809
8199.968144	0.105029	0.060553	6952.921387
8199.969054	0.085331	0.060553	7030.572266
8199.969979	0.085378	0.060553	7109.547363
8199.970869	0.085302	0.060553	7185.465820
8199.971830	0.085356	0.060553	7267.493164
8199.972736	0.085378	0.060553	7344.846191
8199.973625	0.085378	0.060553	7420.747559
8199.974560	0.085404	0.060553	7500.600586
8199.975463	0.085371	0.060553	7577.690918
8199.976358	0.085356	0.060553	7654.084961
8200.998360	1.056984	0.057391	476.699646
8200.999264	1.512942	0.057391	1844.399170
8201.000198	1.502062	0.057391	3247.324707
8201.001123	1.462892	0.057391	4600.499512
8201.002041	1.425157	0.057391	5908.793945
8201.002944	1.027138	0.057391	6836.299316
8201.003897	0.108959	0.057391	6940.137207
8201.004797	0.085247	0.057391	7016.859375
8201.005698	0.085360	0.057391	7093.769043
8201.006615	0.085305	0.057391	7171.993652
8201.007513	0.085367	0.057391	7248.653809
8201.008440	0.085364	0.057391	7327.786133
8201.009357	0.085298	0.057391	7406.004395
8201.010277	0.085389	0.057391	7484.562500
8201.011165	0.085367	0.057391	7560.368652
8201.012123	0.085331	0.057391	7642.115723
8202.030592	1.102335	0.060622	531.325562
8202.031503	1.514597	0.060622	1911.123535
8202.032414	1.500853	0.060622	3278.400879
8202.033314	1.462478	0.060622	4594.630859
8202.034246	1.424623	0.060622	5922.379395
8202.035174	0.993523	0.060622	6844.368652
8202.036065	0.110775	0.060622	6943.069336
8202.037000	0.085294	0.060622	7022.819336
8202.037909	0.085426	0.060622	7100.471680
8202.038812	0.085316	0.060622	7177.512207
8202.039702	0.085316	0.060622	7253.443359
8202.040649	0.085408	0.060622	7334.324219
8202.041556	0.085280	0.060622	7411.672852
8202.042449	0.085393	0.060622	7487.928711
8202.043355	0.085375	0.060622	7565.278320
8202.044270	0.085393	0.060622	7643.413086
8203.063784	1.069922	0.057137	488.954285
8203.064712	1.513964	0.057137	1893.912598
8203.065617	1.501626	0.057137	3252.884277
8203.066513	1.463079	0.057137	4563.802734
8203.067466	1.424795	0.057137	5921.632324
8203.068389	1.001525	0.057137	6846.039551
8203.069282	0.111130	0.057137	6945.278809
8203.070208	0.085342	0.057137	7024.305176
8203.071108	0.085367	0.057137	7101.135742
8203.072012	0.085386	0.057137	7178.324219
8203.072905	0.085349	0.057137	7254.541016
8203.073849	0.085364	0.057137	7335.124512
8203.074744	0.085378	0.057137	7411.538086
8203.075641	0.085386	0.057137	7488.128906
8203.076533	0.085382	0.057137	7564.289551
8203.077467	0.085371	0.057137	7644.026367
8204.098523	1.049908	0.058753	474.558594
8204.099426	1.512385	0.058753	1840.242432
8204.100361	1.502142	0.058753	3244.745605
8204.101276	1.463181	0.058753	4583.556641
8204.102183	1.425857	0.058753	5876.808594
8204.103077	1.066637	0.058753	6830.381836
8204.104023	0.113921	0.058753	6938.150879
8204.104929	0.085115	0.058753	7015.264648
8204.105829	0.085411	0.058753	7092.134766
8204.106763	0.085433	0.058753	7171.929687
8204.107671	0.085378	0.058753	7249.453125
8204.108576	0.085400	0.058753	7326.740234
8204.109461	0.085364	0.058753	7402.287109
8204.110403	0.085452	0.058753	7482.782715
8204.111304	0.085338	0.058753	7559.672363
8204.112201	0.085342	0.058753	7636.224121
8205.130768	1.070306	0.054547	545.856262
8205.131685	1.515392	0.054547	1935.470459
8205.132604	1.499517	0.054547	3313.526367
8205.133508	1.461273	0.054547	4634.517578
8205.134452	1.422546	0.054547	5977.401367
8205.135374	0.914681	0.054547	6820.737793
8205.136294	0.099551	0.054547	6912.324707
8205.137183	0.085236	0.054547	6988.099121
8205.138138	0.085313	0.054547	7069.572754
8205.139040	0.085367	0.054547	7146.574219
8205.139929	0.085393	0.054547	7222.488770
8205.140876	0.085356	0.054547	7303.321289
8205.141785	0.085283	0.054547	7380.843750
8205.142697	0.085386	0.054547	7458.715332
8205.143592	0.085349	0.054547	7535.103027
8205.144526	0.085334	0.054547	7614.805664
8206.166524	1.078469	0.058023	529.528381
8206.167446	1.515070	0.058023	1926.422607
8206.168352	1.500568	0.058023	3285.937012
8206.169249	1.462401	0.058023	4597.710937
8206.170206	1.423572	0.058023	5960.069336
8206.171118	0.964592	0.058023	6839.777344
8206.172018	0.106219	0.058023	6935.375000
8206.172923	0.085170	0.058023	7012.453613
8206.173861	0.085338	0.058023	7092.500977
8206.174779	0.085345	0.058023	7170.848145
8206.175676	0.085316	0.058023	7247.376953
8206.176612	0.085408	0.058023	7327.318359
8206.177516	0.085360	0.058023	7404.483887
8206.178415	0.085338	0.058023	7481.202637
8206.179302	0.085291	0.058023	7556.855469
8206.180252	0.085393	0.058023	7637.979004
8207.198162	1.042320	0.052638	460.705658
8207.199055	1.511320	0.052638	1810.313965
8207.200025	1.501252	0.052638	3266.528809
8207.200925	1.462943	0.052638	4583.177734
8207.201831	1.425875	0.052638	5875.020508
8207.202733	1.022153	0.052638	6797.002930
8207.203688	0.110651	0.052638	6902.674316
8207.204593	0.085232	0.052638	6979.809082
8207.205484	0.085342	0.052638	7055.848633
8207.206425	0.085378	0.052638	7136.189941
8207.207321	0.085400	0.052638	7212.708496
8207.208215	0.085320	0.052638	7288.984375
8207.209104	0.085408	0.052638	7364.911621
8207.210043	0.085375	0.052638	7445.078613
8207.210940	0.085349	0.052638	7521.636719
8207.211841	0.085378	0.052638	7598.562500
8208.234953	1.040533	0.057166	454.713104
8208.235851	1.511133	0.057166	1811.710449
8208.236827	1.500905	0.057166	3276.593262
8208.237745	1.461819	0.057166	4618.542969
8208.238647	1.425029	0.057166	5903.919434
8208.239596	0.985221	0.057166	6838.894043
8208.240499	0.107721	0.057166	6936.166016
8208.241404	0.085258	0.057166	7013.324219
8208.242290	0.085371	0.057166	7088.962891
8208.243250	0.085364	0.057166	7170.912109
8208.244153	0.085331	0.057166	7247.965820
8208.245049	0.085378	0.057166	7324.464844
8208.245937	0.085349	0.057166	7400.254883
8208.246896	0.085433	0.057166	7482.185547
8208.247805	0.085367	0.057166	7559.784668
8208.248702	0.085415	0.057166	7636.401855
8209.265608	1.040365	0.052001	456.720215
8209.266584	1.511521	0.052001	1931.964722
8209.267503	1.499974	0.052001	3310.441162
8209.268402	1.461793	0.052001	4624.593262
8209.269302	1.425040	0.052001	5907.129883
8209.270258	0.965065	0.052001	6829.731445
8209.271175	0.104319	0.052001	6925.391602
8209.272071	0.085258	0.052001	7001.782227
8209.272960	0.085375	0.052001	7077.680176
8209.273926	0.085371	0.052001	7160.148437
8209.274827	0.085291	0.052001	7236.995117
8209.275713	0.085323	0.052001	7312.591797
8209.276658	0.085422	0.052001	7393.315918
8209.277567	0.085280	0.052001	7470.834961
8209.278458	0.085349	0.052001	7546.880859
8209.279379	0.085411	0.052001	7625.544922
8210.302422	1.055486	0.056610	474.968628
8210.303319	1.512147	0.056610	1831.364624
8210.304292	1.500461	0.056610	3291.313477
8210.305214	1.461456	0.056610	4638.776367
8210.306139	1.423810	0.056610	5955.800781
8210.307043	0.968071	0.056610	6830.937500
8210.308005	0.101821	0.056610	6928.889648
8210.308923	0.085243	0.056610	7007.142578
8210.309814	0.085371	0.056610	7083.208008
8210.310759	0.085415	0.056610	7163.925293
8210.311658	0.085353	0.056610	7240.657227
8210.312571	0.085316	0.056610	7318.550781
8210.313464	0.085305	0.056610	7394.728516
8210.314424	0.085371	0.056610	7476.684570
8210.315326	0.085334	0.056610	7553.656250
8210.316250	0.085441	0.056610	7632.603516
8211.333595	1.062462	0.051776	478.107941
8211.334493	1.512594	0.051776	1836.417358
8211.335386	1.503307	0.051776	3178.870361
8211.336342	1.463500	0.051776	4577.976074
8211.337247	1.425846	0.051776	5868.366699
8211.338158	1.055405	0.051776	6829.840820
8211.339069	0.119769	0.051776	6938.950684
8211.339998	0.085375	0.051776	7018.263672
8211.340911	0.085375	0.051776	7096.210937
8211.341813	0.085422	0.051776	7173.261719
8211.342749	0.085466	0.051776	7253.258301
8211.343647	0.085419	0.051776	7329.964355
8211.344546	0.085334	0.051776	7406.680176
8211.345433	0.085408	0.051776	7482.437012
8211.346364	0.085496	0.051776	7562.033203
8211.347263	0.085430	0.051776	7638.834473
8212.369409	1.108920	0.056444	547.806335
8212.370332	1.515656	0.056444	1946.756348
8212.371241	1.500377	0.056444	3310.599121
8212.372139	1.461508	0.056444	4623.033203
8212.373091	1.423151	0.056444	5977.872559
8212.374011	0.955723	0.056444	6857.137207
8212.374901	0.106223	0.056444	6951.675781
8212.375842	0.085309	0.056444	7031.951172
8212.376737	0.085415	0.056444	7108.397461
8212.377638	0.085353	0.056444	7185.300293
8212.378529	0.085364	0.056444	7261.359375
8212.379461	0.085382	0.056444	7340.935547
8212.380368	0.085397	0.056444	7418.390625
8212.381273	0.085323	0.056444	7495.608398
8212.382163	0.085356	0.056444	7571.575684
8212.383108	0.085411	0.056444	7652.289551
8213.402055	1.046459	0.052130	458.348907
8213.403016	1.514725	0.052130	1913.999878
8213.403946	1.499905	0.052130	3308.911377
8213.404858	1.461471	0.052130	4641.772949
8213.405798	1.423565	0.052130	5979.923828
8213.406724	0.943956	0.052130	6854.027344
8213.407619	0.104187	0.052130	6947.274902
8213.408505	0.085265	0.052130	7022.819824
8213.409447	0.085364	0.052130	7103.232422
8213.410351	0.085367	0.052130	7180.404785
8213.411246	0.085309	0.052130	7256.756348
8213.412132	0.085298	0.052130	7332.330078
8213.413069	0.085404	0.052130	7412.353516
8213.413980	0.085294	0.052130	7490.056641
8213.414874	0.085386	0.052130	7566.391602
8213.415810	0.085408	0.052130	7646.333008
8214.435846	1.101845	0.056360	550.922302
8214.436753	1.515044	0.056360	1925.067139
8214.437657	1.500652	0.056360	3281.656250
8214.438550	1.462657	0.056360	4587.809570
8214.439491	1.424381	0.056360	5928.152344
8214.440419	0.991860	0.056360	6848.598633
8214.441313	0.109926	0.056360	6946.872070
8214.442248	0.085320	0.056360	7026.645996
8214.443150	0.085419	0.056360	7103.693848
8214.444047	0.085367	0.056360	7180.268555
8214.444937	0.085463	0.056360	7256.330078
8214.445893	0.085503	0.056360	7338.070801
8214.446795	0.085389	0.056360	7415.091797
8214.447692	0.085338	0.056360	7491.640137
8214.448577	0.085287	0.056360	7567.119141
8214.449515	0.085367	0.056360	7647.193848
8215.470555	1.058774	0.052988	477.507294
8215.471461	1.512759	0.052988	1848.066772
8215.472355	1.502948	0.052988	3191.702148
8215.473312	1.462903	0.052988	4591.700195
8215.474232	1.424989	0.052988	5902.690430
8215.475166	1.000257	0.052988	6836.930664
8215.476050	0.112650	0.052988	6936.513184
8215.476992	0.085280	0.052988	7016.846680
8215.477895	0.085360	0.052988	7093.926758
8215.478786	0.085375	0.052988	7169.995605
8215.479717	0.085419	0.052988	7249.520508
8215.480618	0.085422	0.052988	7326.485840
8215.481545	0.085400	0.052988	7405.651855
8215.482436	0.085400	0.052988	7481.743652
8215.483383	0.085382	0.052988	7562.600586
8215.484280	0.085327	0.052988	7639.139160
8216.502273	1.097977	0.057657	536.910889
8216.503186	1.515154	0.057657	1920.246216
8216.504099	1.500747	0.057657	3290.428223
8216.504997	1.462350	0.057657	4603.618164
8216.505966	1.423268	0.057657	5982.764648
8216.506885	0.947498	0.057657	6853.514648
8216.507778	0.105190	0.057657	6947.449707
8216.508708	0.085298	0.057657	7026.776855
8216.509608	0.085477	0.057657	7103.706543
8216.510513	0.085261	0.057657	7180.868164
8216.511404	0.085393	0.057657	7256.953613
8216.512328	0.085518	0.057657	7335.971680
8216.513234	0.085452	0.057657	7413.391113
8216.514134	0.085378	0.057657	7490.231445
8216.515024	0.085437	0.057657	7566.270508
8216.515976	0.085419	0.057657	7647.588867
8217.539055	1.077733	0.054104	504.379120
8217.539971	1.513854	0.054104	1891.069092
8217.540869	1.501868	0.054104	3239.746094
8217.541793	1.462837	0.054104	4591.407227
8217.542724	1.424744	0.054104	5917.843750
8217.543650	0.993563	0.054104	6837.883301
8217.544549	0.109343	0.054104	6936.183105
8217.545479	0.085302	0.054104	7015.513672
8217.546383	0.085364	0.054104	7092.682617
8217.547284	0.085367	0.054104	7169.598633
8217.548172	0.085422	0.054104	7245.453613
8217.549111	0.085485	0.054104	7325.723633
8217.550012	0.085415	0.054104	7402.682617
8217.550906	0.085323	0.054104	7478.961914
8217.551822	0.085338	0.054104	7557.131836
8217.552743	0.085419	0.054104	7635.802246
8218.569172	1.051502	0.057327	460.557648
8218.570094	1.512810	0.057327	1855.368530
8218.571000	1.502336	0.057327	3216.485352
8218.571931	1.463687	0.057327	4579.177734
8218.572850	1.425564	0.057327	5889.270996
8218.573769	1.032579	0.057327	6838.211426
8218.574654	0.118008	0.057327	6942.648437
8218.575611	0.085313	0.057327	7024.292480
8218.576512	0.085444	0.057327	7101.277832
8218.577414	0.085430	0.057327	7178.335449
8218.578300	0.085371	0.057327	7253.974121
8218.579247	0.085507	0.057327	7334.948730
8218.580149	0.085367	0.057327	7411.950195
8218.581046	0.085408	0.057327	7488.561035
8218.581968	0.085492	0.057327	7567.384766
8218.582879	0.085474	0.057327	7645.251465
8219.607498	1.033524	0.056207	449.583008
8219.608394	1.510935	0.056207	1803.380859
8219.609370	1.501073	0.056207	3268.428223
8219.610287	1.462357	0.056207	4609.409668
8219.611181	1.425388	0.056207	5883.707031
8219.612118	1.000247	0.056207	6820.937988
8219.613032	0.110343	0.056207	6921.791504
8219.613934	0.085258	0.056207	6998.693848
8219.614821	0.085448	0.056207	7074.486328
8219.615756	0.085404	0.056207	7154.339355
8219.616665	0.085294	0.056207	7231.871582
8219.617568	0.085382	0.056207	7308.971680
8219.618457	0.085353	0.056207	7384.850098
8219.619405	0.085499	0.056207	7465.903320
8219.620310	0.085397	0.056207	7543.187500
8219.621201	0.085437	0.056207	7619.312012
8220.635144	1.097512	0.058483	550.951172
8220.636078	1.516285	0.058483	1967.161743
8220.636988	1.499268	0.058483	3331.495117
8220.637881	1.461200	0.058483	4636.346680
8220.638839	1.422319	0.058483	5998.928711
8220.639767	0.919127	0.058483	6851.878906
8220.640668	0.100693	0.058483	6942.603516
8220.641600	0.085287	0.058483	7022.090820
8220.642507	0.085404	0.058483	7099.552246
8220.643412	0.085375	0.058483	7176.816406
8220.644304	0.085382	0.058483	7252.977051
8220.645241	0.085371	0.058483	7332.969727
8220.646138	0.085415	0.058483	7409.586914
8220.647042	0.085397	0.058483	7486.785645
8220.647932	0.085441	0.058483	7562.827637
8220.648882	0.085404	0.058483	7643.961426
8221.675999	1.061250	0.056879	475.440002
8221.676904	1.512686	0.056879	1844.420410
8221.677798	1.502622	0.056879	3187.764648
8221.678757	1.463082	0.056879	4590.860352
8221.679663	1.425524	0.056879	5882.384766
8221.680572	1.046818	0.056879	6833.941895
8221.681506	0.118063	0.056879	6944.212402
8221.682417	0.085334	0.056879	7021.952148
8221.683328	0.085305	0.056879	7099.665039
8221.684232	0.085481	0.056879	7176.939941
8221.685158	0.085426	0.056879	7256.044434
8221.686064	0.085426	0.056879	7333.440430
8221.686960	0.085378	0.056879	7409.939453
8221.687849	0.085437	0.056879	7485.893066
8221.688789	0.085466	0.056879	7566.231445
8221.689686	0.085356	0.056879	7642.796387
8222.703066	1.057200	0.059446	479.968658
8222.703959	1.512316	0.059446	1830.466553
8222.704904	1.501721	0.059446	3249.593018
8222.705814	1.462932	0.059446	4580.861328
8222.706723	1.425655	0.059446	5876.782227
8222.707629	1.053124	0.059446	6830.912598
8222.708584	0.108387	0.059446	6934.422852
8222.709489	0.085353	0.059446	7011.666992
8222.710386	0.085345	0.059446	7088.221680
8222.711306	0.085345	0.059446	7166.739258
8222.712224	0.085430	0.059446	7245.163574
8222.713134	0.085408	0.059446	7322.884766
8222.714024	0.085269	0.059446	7398.773926
8222.714961	0.085422	0.059446	7478.814453
8222.715863	0.085433	0.059446	7555.875488
8222.716764	0.085309	0.059446	7632.738770
8223.743435	1.038190	0.057222	454.727081
8223.744332	1.511089	0.057222	1810.173706
8223.745293	1.501117	0.057222	3252.747070
8223.746211	1.462625	0.057222	4595.436523
8223.747116	1.425172	0.057222	5885.217285
8223.748067	0.999177	0.057222	6835.435059
8223.748968	0.110167	0.057222	6934.695801
8223.749863	0.085323	0.057222	7011.060547
8223.750753	0.085320	0.057222	7086.995117
8223.751697	0.085503	0.057222	7167.709961
8223.752593	0.085441	0.057222	7244.264648
8223.753499	0.085437	0.057222	7321.670410
8223.754393	0.085437	0.057222	7398.051270
8223.755337	0.085536	0.057222	7478.797363
8223.756244	0.085411	0.057222	7556.265625
8223.757138	0.085375	0.057222	7632.590820
8224.773074	1.044174	0.058628	465.701416
8224.773967	1.511283	0.058628	1815.277100
8224.774919	1.501088	0.058628	3244.312500
8224.775834	1.462976	0.058628	4582.935547
8224.776741	1.425923	0.058628	5876.247559
8224.777645	1.025530	0.058628	6803.326172
8224.778605	0.107428	0.058628	6906.457031
8224.779516	0.085254	0.058628	6984.123535
8224.780411	0.085386	0.058628	7060.543945
8224.781349	0.085426	0.058628	7140.673340
8224.782242	0.085463	0.058628	7216.991699
8224.783136	0.085408	0.058628	7293.346191
8224.784021	0.085378	0.058628	7368.906250
8224.784954	0.085529	0.058628	7448.704590
8224.785864	0.085470	0.058628	7526.482422
8224.786765	0.085364	0.058628	7603.395020
8225.807862	1.067043	0.057999	514.314941
8225.808774	1.514454	0.057999	1895.497314
8225.809672	1.501567	0.057999	3243.904785
8225.810565	1.463877	0.057999	4551.146973
8225.811525	1.424729	0.057999	5918.886719
8225.812453	0.982753	0.057999	6830.881348
8225.813350	0.108373	0.057999	6928.091797
8225.814243	0.085382	0.057999	7004.337891
8225.815186	0.085422	0.057999	7084.891113
8225.816097	0.085400	0.057999	7162.690918
8225.816990	0.085411	0.057999	7238.963379
8225.817921	0.085488	0.057999	7318.552734
8225.818822	0.085485	0.057999	7395.574219
8225.819718	0.085382	0.057999	7472.076660
8225.820605	0.085441	0.057999	7547.862305
8225.821548	0.085510	0.057999	7628.498535
8226.842579	1.048023	0.056613	466.370026
8226.843479	1.512023	0.056613	1827.190308
8226.844370	1.503256	0.056613	3166.591064
8226.845344	1.462892	0.056613	4591.447754
8226.846254	1.425439	0.056613	5888.597656
8226.847157	1.045715	0.056613	6832.878418
8226.848090	0.118656	0.056613	6943.584473
8226.848997	0.085367	0.056613	7021.012695
8226.849889	0.085397	0.056613	7097.186523
8226.850780	0.085459	0.056613	7173.330566
8226.851714	0.085433	0.056613	7253.125488
8226.852632	0.085356	0.056613	7331.482910
8226.853531	0.085415	0.056613	7408.270996
8226.854462	0.085481	0.056613	7487.854004
8226.855366	0.085389	0.056613	7565.045898
8226.856266	0.085452	0.056613	7641.952148
8227.872738	1.065414	0.058511	480.501648
8227.873642	1.512645	0.058511	1847.932861
8227.874534	1.503274	0.058511	3188.853027
8227.875493	1.462822	0.058511	4591.699707
8227.876401	1.425293	0.058511	5885.865723
8227.877327	1.017799	0.058511	6828.347656
8227.878217	0.114825	0.058511	6930.542480
8227.879174	0.085272	0.058511	7012.147949
8227.880082	0.085463	0.058511	7089.748047
8227.880975	0.085422	0.058511	7166.030273
8227.881899	0.085397	0.058511	7244.937012
8227.882803	0.085389	0.058511	7322.128906
8227.883724	0.085437	0.058511	7400.816406
8227.884614	0.085404	0.058511	7476.826172
8227.885563	0.085492	0.058511	7557.958008
8227.886461	0.085444	0.058511	7634.687012
8228.912611	1.072522	0.054881	493.360077
8228.913521	1.513400	0.054881	1870.553711
8228.914467	1.500450	0.054881	3289.979980
8228.915388	1.461577	0.054881	4636.092285
8228.916299	1.424216	0.054881	5933.553223
8228.917198	0.982679	0.054881	6816.981934
8228.918151	0.104158	0.054881	6916.244141
8228.919058	0.085353	0.054881	6993.659180
8228.919948	0.085393	0.054881	7069.659180
8228.920889	0.085474	0.054881	7150.089844
8228.921783	0.085521	0.054881	7226.545898
8228.922689	0.085492	0.054881	7304.001465
8228.923576	0.085455	0.054881	7379.800293
8228.924514	0.085433	0.054881	7459.937012
8228.925414	0.085518	0.054881	7536.902832
8228.926322	0.085448	0.054881	7614.489746
8229.936591	1.032034	0.059675	446.870575
8229.937535	1.512356	0.059675	1874.534546
8229.938450	1.501571	0.059675	3248.472168
8229.939353	1.463591	0.059675	4570.095215
8229.940246	1.426483	0.059675	5843.944824
8229.941222	1.003590	0.059675	6823.448730
8229.942119	0.111482	0.059675	6923.448242
8229.943013	0.085313	0.059675	6999.717773
8229.943942	0.085393	0.059675	7079.047852
8229.944857	0.085551	0.059675	7157.326660
8229.945767	0.085422	0.059675	7235.061035
8229.946662	0.085474	0.059675	7311.560059
8229.947598	0.085492	0.059675	7391.580566
8229.948493	0.085408	0.059675	7468.020508
8229.949393	0.085433	0.059675	7544.910645
8229.950282	0.085455	0.059675	7620.880371
8230.982615	1.052344	0.055389	474.607025
8230.983516	1.512378	0.055389	1837.259521
8230.984467	1.501307	0.055389	3265.002930
8230.985394	1.461716	0.055389	4620.013672
8230.986303	1.424608	0.055389	5914.982422
8230.987206	1.016360	0.055389	6832.755371
8230.988169	0.103286	0.055389	6932.219727
8230.989069	0.085298	0.055389	7008.987793
8230.989993	0.085433	0.055389	7087.928223
8230.990903	0.085441	0.055389	7165.679199
8230.991819	0.085371	0.055389	7243.878906
8230.992716	0.085419	0.055389	7320.499512
8230.993602	0.085316	0.055389	7396.089844
8230.994533	0.085419	0.055389	7475.614746
8230.995446	0.085448	0.055389	7553.628906
8230.996349	0.085389	0.055389	7630.735352
8232.000985	1.051707	0.061081	469.061127
8232.001897	1.512440	0.061081	1848.406616
8232.002805	1.502358	0.061081	3212.547852
8232.003739	1.463628	0.061081	4579.576172
8232.004664	1.425348	0.061081	5898.022949
8232.005587	1.015818	0.061081	6835.623047
8232.006481	0.113291	0.061081	6936.905273
8232.007416	0.085437	0.061081	7016.789062
8232.008319	0.085485	0.061081	7093.981445
8232.009215	0.085448	0.061081	7170.542969
8232.010103	0.085540	0.061081	7246.501953
8232.011049	0.085562	0.061081	7327.443359
8232.011950	0.085477	0.061081	7404.458496
8232.012846	0.085463	0.061081	7481.033203
8232.013775	0.085411	0.061081	7560.380371
8232.014677	0.085551	0.061081	7637.546875
8233.052624	1.044130	0.056634	459.417084
8233.053519	1.511349	0.056634	1812.074463
8233.054463	1.501630	0.056634	3229.612793
8233.055386	1.462646	0.056634	4579.635742
8233.056292	1.425568	0.056634	5871.200195
8233.057249	0.997734	0.056634	6826.032227
8233.058148	0.110002	0.056634	6924.924316
8233.059054	0.085327	0.056634	7002.230469
8233.059940	0.085404	0.056634	7077.898437
8233.060887	0.085499	0.056634	7158.866211
8233.061787	0.085408	0.056634	7235.733398
8233.062680	0.085433	0.056634	7312.025391
8233.063589	0.085463	0.056634	7389.710937
8233.064509	0.085492	0.056634	7468.363770
8233.065415	0.085411	0.056634	7545.746582
8233.066315	0.085411	0.056634	7622.616699
8234.064867	1.055900	0.062612	476.210724
8234.065772	1.512521	0.062612	1845.041992
8234.066663	1.503186	0.062612	3184.380859
8234.067603	1.463943	0.062612	4560.487305
8234.068521	1.425839	0.062612	5869.407227
8234.069433	1.053907	0.062612	6830.570801
8234.070322	0.120930	0.062612	6938.077637
8234.071281	0.085389	0.062612	7019.966309
8234.072182	0.085360	0.062612	7096.875977
8234.073078	0.085386	0.062612	7173.381836
8234.073998	0.085485	0.062612	7252.027832
8234.074900	0.085382	0.062612	7329.042480
8234.075797	0.085375	0.062612	7405.623535
8234.076688	0.085404	0.062612	7481.718750
8234.077621	0.085466	0.062612	7561.458984
8234.078540	0.085444	0.062612	7639.982422
8235.122675	1.082175	0.056461	511.868958
8235.123610	1.514982	0.056461	1928.376709
8235.124508	1.500194	0.056461	3275.551025
8235.125474	1.460402	0.056461	4686.298828
8235.126400	1.422345	0.056461	6003.390625
8235.127302	0.939481	0.056461	6850.802734
8235.128240	0.099247	0.056461	6943.896484
8235.129143	0.085305	0.056461	7020.927246
8235.130056	0.085378	0.056461	7098.877930
8235.130954	0.085430	0.056461	7175.593750
8235.131919	0.085437	0.056461	7258.040527
8235.132826	0.085466	0.056461	7335.558594
8235.133717	0.085481	0.056461	7411.722168
8235.134663	0.085474	0.056461	7492.580078
8235.135575	0.085448	0.056461	7570.508789
8235.136485	0.085426	0.056461	7648.246582
8236.130312	1.106645	0.061170	553.322754
8236.131229	1.515582	0.061170	1943.111694
8236.132138	1.499916	0.061170	3306.535156
8236.133032	1.461804	0.061170	4613.388184
8236.133996	1.422920	0.061170	5985.083008
8236.134915	0.947655	0.061170	6855.978027
8236.135806	0.105135	0.061170	6949.653809
8236.136739	0.085342	0.061170	7029.277832
8236.137641	0.085499	0.061170	7106.397949
8236.138550	0.085397	0.061170	7184.023437
8236.139447	0.085415	0.061170	7260.640625
8236.140378	0.085430	0.061170	7340.175781
8236.141284	0.085356	0.061170	7417.508789
8236.142178	0.085448	0.061170	7493.899414
8236.143068	0.085400	0.061170	7569.905762
8236.144012	0.085496	0.061170	7650.613770
8237.192143	1.043020	0.057705	458.928802
8237.193039	1.511063	0.057705	1812.841431
8237.194004	1.501124	0.057705	3261.426270
8237.194922	1.462203	0.057705	4603.729004
8237.195823	1.425366	0.057705	5887.983887
8237.196772	0.996555	0.057705	6833.714844
8237.197673	0.109237	0.057705	6932.137207
8237.198574	0.085276	0.057705	7008.970703
8237.199464	0.085426	0.057705	7085.000000
8237.200429	0.085441	0.057705	7167.450195
8237.201331	0.085459	0.057705	7244.534180
8237.202228	0.085382	0.057705	7321.122070
8237.203127	0.085404	0.057705	7397.900391
8237.204065	0.085507	0.057705	7478.105469
8237.204972	0.085408	0.057705	7555.570312
8237.205867	0.085422	0.057705	7632.023437
8238.195156	1.040065	0.059458	459.708588
8238.196062	1.512210	0.059458	1829.770508
8238.196957	1.503179	0.059458	3175.115479
8238.197886	1.464452	0.059458	4535.591309
8238.198805	1.426468	0.059458	5846.515625
8238.199699	1.088020	0.059458	6819.205566
8238.200629	0.127251	0.059458	6937.548828
8238.201558	0.085210	0.059458	7016.708984
8238.202450	0.085334	0.059458	7092.827148
8238.203342	0.085378	0.059458	7168.984863
8238.204276	0.085313	0.059458	7248.666504
8238.205180	0.085265	0.059458	7325.746094
8238.206097	0.085452	0.059458	7404.105469
8238.206990	0.085411	0.059458	7480.377930
8238.207944	0.085411	0.059458	7561.860352
8238.208851	0.085367	0.059458	7639.288574
8239.261644	1.037534	0.057516	453.402405
8239.262540	1.511070	0.057516	1807.321533
8239.263518	1.500582	0.057516	3274.891113
8239.264426	1.462262	0.057516	4602.625000
8239.265328	1.425088	0.057516	5888.054199
8239.266228	1.015565	0.057516	6802.062988
8239.267169	0.111270	0.057516	6906.767578
8239.268067	0.085247	0.057516	6983.318848
8239.268964	0.085389	0.057516	7059.913086
8239.269899	0.085481	0.057516	7139.837891
8239.270808	0.085437	0.057516	7217.500000
8239.271709	0.085415	0.057516	7294.458984
8239.272598	0.085397	0.057516	7370.376465
8239.273558	0.085507	0.057516	7452.462891
8239.274460	0.085400	0.057516	7529.494141
8239.275357	0.085397	0.057516	7606.095215
8240.262603	1.040453	0.057685	455.718353
8240.263569	1.514747	0.057685	1918.964355
8240.264476	1.500388	0.057685	3279.816406
8240.265375	1.462690	0.057685	4594.774902
8240.266317	1.424557	0.057685	5936.707520
8240.267238	0.980592	0.057685	6839.833008
8240.268134	0.108885	0.057685	6937.394531
8240.269023	0.085276	0.057685	7013.204590
8240.269951	0.085349	0.057685	7092.408691
8240.270857	0.085488	0.057685	7169.860840
8240.271764	0.085496	0.057685	7247.405273
8240.272652	0.085444	0.057685	7323.279785
8240.273599	0.085496	0.057685	7404.244141
8240.274504	0.085364	0.057685	7481.498535
8240.275396	0.085411	0.057685	7557.685547
8240.276339	0.085452	0.057685	7638.266602
8241.329664	1.077081	0.058112	528.846924
8241.330581	1.515176	0.058112	1918.263062
8241.331486	1.500373	0.058112	3276.101074
8241.332380	1.462635	0.058112	4583.697266
8241.333335	1.423586	0.058112	5943.222168
8241.334242	0.986455	0.058112	6837.937012
8241.335141	0.108779	0.058112	6935.729492
8241.336030	0.085298	0.058112	7011.559082
8241.336971	0.085554	0.058112	7092.065430
8241.337877	0.085320	0.058112	7169.365234
8241.338764	0.085393	0.058112	7245.108887
8241.339693	0.085360	0.058112	7324.408203
8241.340599	0.085400	0.058112	7401.780762
8241.341503	0.085345	0.058112	7478.933105
8241.342389	0.085408	0.058112	7554.604492
8241.343335	0.085488	0.058112	7635.476562
8242.329541	1.030093	0.055997	443.970001
8242.330485	1.511477	0.055997	1870.804199
8242.331407	1.500758	0.055997	3254.503174
8242.332331	1.462350	0.055997	4605.714355
8242.333226	1.425300	0.055997	5881.357910
8242.334203	0.963669	0.055997	6822.862793
8242.335099	0.107036	0.055997	6918.767090
8242.335986	0.085243	0.055997	6994.377441
8242.336907	0.085404	0.055997	7073.034668
8242.337834	0.085313	0.055997	7152.119141
8242.338736	0.085345	0.055997	7229.100586
8242.339624	0.085375	0.055997	7304.913574
8242.340560	0.085386	0.055997	7384.834473
8242.341467	0.085313	0.055997	7462.212891
8242.342398	0.085331	0.055997	7541.655762
8242.343289	0.085338	0.055997	7617.691895
8243.398103	1.047389	0.057645	467.135468
8243.398999	1.511301	0.057645	1821.261475
8243.399957	1.501190	0.057645	3259.401611
8243.400868	1.462617	0.057645	4591.845703
8243.401765	1.425751	0.057645	5870.744141
8243.402714	1.008512	0.057645	6827.822266
8243.403621	0.110768	0.057645	6928.288574
8243.404523	0.085250	0.057645	7005.184082
8243.405413	0.085382	0.057645	7081.174316
8243.406346	0.085426	0.057645	7160.876953
8243.407252	0.085415	0.057645	7238.263184
8243.408159	0.085349	0.057645	7315.674805
8243.409047	0.085345	0.057645	7391.461426
8243.409991	0.085404	0.057645	7472.083008
8243.410891	0.085375	0.057645	7548.920410
8243.411781	0.085411	0.057645	7624.936523
8244.397527	1.056332	0.054446	475.349335
8244.398429	1.512451	0.054446	1839.580322
8244.399375	1.501179	0.054446	3259.695801
8244.400287	1.462529	0.054446	4593.522461
8244.401195	1.425297	0.054446	5887.691895
8244.402094	1.048832	0.054446	6830.591797
8244.403043	0.109724	0.054446	6934.720215
8244.403943	0.085316	0.054446	7011.504883
8244.404841	0.085378	0.054446	7088.174805
8244.405750	0.085408	0.054446	7165.810547
8244.406699	0.085481	0.054446	7246.932129
8244.407601	0.085448	0.054446	7324.006348
8244.408500	0.085345	0.054446	7400.731934
8244.409431	0.085422	0.054446	7480.260254
8244.410332	0.085422	0.054446	7557.225586
8244.411231	0.085463	0.054446	7634.056641
8245.464531	1.044056	0.056376	463.561035
8245.465426	1.511353	0.056376	1816.221558
8245.466371	1.501549	0.056376	3235.185547
8245.467302	1.462749	0.056376	4597.004883
8245.468208	1.425234	0.056376	5888.267578
8245.469167	0.984620	0.056376	6832.518555
8245.470069	0.107410	0.056376	6929.401855
8245.470969	0.085327	0.056376	7006.196289
8245.471859	0.085426	0.056376	7082.225586
8245.472798	0.085444	0.056376	7162.458008
8245.473703	0.085367	0.056376	7239.715332
8245.474598	0.085367	0.056376	7316.119141
8245.475486	0.085360	0.056376	7391.918945
8245.476416	0.085503	0.056376	7471.436523
8245.477325	0.085378	0.056376	7549.045410
8245.478222	0.085437	0.056376	7625.682617
8246.466517	1.057060	0.055107	470.391907
8246.467440	1.512946	0.055107	1866.840576
8246.468343	1.501919	0.055107	3223.073242
8246.469285	1.462544	0.055107	4600.789551
8246.470202	1.424747	0.055107	5907.282715
8246.471120	1.017169	0.055107	6841.043945
8246.472009	0.115225	0.055107	6943.478516
8246.472959	0.085408	0.055107	7024.615723
8246.473864	0.085437	0.055107	7101.936035
8246.474753	0.085371	0.055107	7177.831055
8246.475672	0.085441	0.055107	7256.351074
8246.476588	0.085470	0.055107	7334.641602
8246.477499	0.085422	0.055107	7412.461426
8246.478400	0.085397	0.055107	7489.403809
8246.479344	0.085492	0.055107	7570.108398
8246.480250	0.085411	0.055107	7647.491211
8247.533541	1.063187	0.054833	482.687012
8247.534449	1.512572	0.054833	1856.102417
8247.535342	1.502230	0.054833	3197.593994
8247.536287	1.462808	0.054833	4579.947266
8247.537211	1.424736	0.054833	5896.403809
8247.538121	1.026636	0.054833	6830.642578
8247.539012	0.116016	0.054833	6934.012695
8247.539960	0.085316	0.054833	7014.892578
8247.540866	0.085397	0.054833	7092.262207
8247.541755	0.085382	0.054833	7168.166992
8247.542677	0.085367	0.054833	7246.875977
8247.543586	0.085353	0.054833	7324.461426
8247.544484	0.085404	0.054833	7401.154297
8247.545372	0.085404	0.054833	7476.993164
8247.546310	0.085419	0.054833	7557.115723
8247.547219	0.085415	0.054833	7634.757812
8248.533984	1.065051	0.057355	485.663361
8248.534882	1.512459	0.057355	1843.851074
8248.535834	1.500619	0.057355	3272.440430
8248.536741	1.462332	0.057355	4598.775391
8248.537644	1.425289	0.057355	5885.811523
8248.538549	1.026661	0.057355	6814.939941
8248.539487	0.110383	0.057355	6918.479492
8248.540399	0.085272	0.057355	6996.247559
8248.541300	0.085430	0.057355	7073.219727
8248.542230	0.085386	0.057355	7152.628418
8248.543142	0.085433	0.057355	7230.543457
8248.544036	0.085334	0.057355	7306.832520
8248.544925	0.085323	0.057355	7382.685059
8248.545859	0.085382	0.057355	7462.432129
8248.546757	0.085393	0.057355	7539.115234
8248.547652	0.085415	0.057355	7615.561523
8249.600971	1.044727	0.053633	462.813873
8249.601867	1.510924	0.053633	1816.601807
8249.602843	1.500623	0.053633	3281.209473
8249.603769	1.461324	0.053633	4634.395996
8249.604673	1.423971	0.053633	5921.666016
8249.605636	0.948314	0.053633	6834.892578
8249.606536	0.104572	0.053633	6929.006836
8249.607431	0.085276	0.053633	7005.328613
8249.608318	0.085291	0.053633	7080.981445
8249.609257	0.085430	0.053633	7161.199707
8249.610171	0.085367	0.053633	7239.225586
8249.611070	0.085276	0.053633	7315.888672
8249.611991	0.085422	0.053633	7394.562500
8249.612906	0.085444	0.053633	7472.744141
8249.613816	0.085298	0.053633	7550.365234
8249.614715	0.085393	0.053633	7627.133789
8250.603478	1.052212	0.055933	474.547607
8250.604375	1.511664	0.055933	1830.510010
8250.605324	1.501176	0.055933	3255.125488
8250.606240	1.462353	0.055933	4594.641113
8250.607146	1.425242	0.055933	5885.910156
8250.608046	1.050179	0.055933	6831.071777
8250.609009	0.106692	0.055933	6933.815918
8250.609901	0.085214	0.055933	7009.826660
8250.610795	0.085247	0.055933	7086.037109
8250.611679	0.085291	0.055933	7161.434082
8250.612630	0.085386	0.055933	7242.635742
8250.613528	0.085265	0.055933	7319.203613
8250.614421	0.085349	0.055933	7395.420410
8250.615351	0.085349	0.055933	7474.794922
8250.616256	0.085393	0.055933	7552.075684
8250.617156	0.085316	0.055933	7628.860352
8251.666399	1.063202	0.052835	480.567261
8251.667300	1.512305	0.052835	1843.153809
8251.668194	1.502142	0.052835	3186.069092
8251.669163	1.462485	0.052835	4603.217285
8251.670074	1.424531	0.052835	5900.965332
8251.670983	1.023864	0.052835	6831.657227
8251.671932	0.113434	0.052835	6939.306152
8251.672840	0.085228	0.052835	7016.693359
8251.673744	0.085371	0.052835	7093.868652
8251.674636	0.085298	0.052835	7169.954102
8251.675603	0.085419	0.052835	7252.554199
8251.676501	0.085345	0.052835	7329.194336
8251.677396	0.085302	0.052835	7405.539062
8251.678282	0.085320	0.052835	7481.132324
8251.679230	0.085437	0.052835	7562.126465
8251.680130	0.085382	0.052835	7638.970215
8252.674007	1.068289	0.056859	481.798157
8252.674953	1.514535	0.056859	1914.548340
8252.675845	1.501073	0.056859	3253.505371
8252.676808	1.460804	0.056859	4660.259766
8252.677737	1.422378	0.056859	5981.648926
8252.678676	0.924089	0.056859	6849.368652
8252.679563	0.103022	0.056859	6940.749512
8252.680521	0.085221	0.056859	7022.391113
8252.681439	0.085334	0.056859	7100.728027
8252.682322	0.085327	0.056859	7176.071777
8252.683265	0.085320	0.056859	7256.528320
8252.684173	0.085375	0.056859	7334.048828
8252.685094	0.085408	0.056859	7412.709473
8252.685986	0.085342	0.056859	7488.834473
8252.686948	0.085280	0.056859	7570.873535
8252.687873	0.085386	0.056859	7649.855469
8253.733337	1.058767	0.051606	478.562714
8253.734236	1.512023	0.051606	1837.871094
8253.735200	1.500835	0.051606	3284.676025
8253.736104	1.462288	0.051606	4606.583984
8253.737006	1.425157	0.051606	5892.076172
8253.737906	1.039182	0.051606	6827.340332
8253.738851	0.109211	0.051606	6930.544922
8253.739763	0.085173	0.051606	7008.223145
8253.740658	0.085349	0.051606	7084.610840
8253.741584	0.085437	0.051606	7163.725586
8253.742499	0.085430	0.051606	7241.893555
8253.743409	0.085331	0.051606	7319.544434
8253.744302	0.085422	0.051606	7395.826660
8253.745238	0.085433	0.051606	7475.792480
8253.746141	0.085316	0.051606	7552.833008
8253.747039	0.085367	0.051606	7629.493164
8254.743499	1.038047	0.057367	456.740601
8254.744392	1.510810	0.057367	1805.894409
8254.745353	1.501377	0.057367	3248.717773
8254.746263	1.463035	0.057367	4580.079102
8254.747157	1.426051	0.057367	5854.968750
8254.748081	1.019451	0.057367	6796.941406
8254.749019	0.111053	0.057367	6901.109375
8254.749923	0.085243	0.057367	6978.168945
8254.750824	0.085382	0.057367	7055.098145
8254.751764	0.085433	0.057367	7135.405273
8254.752670	0.085345	0.057367	7212.728027
8254.753574	0.085342	0.057367	7289.876953
8254.754463	0.085334	0.057367	7365.739258
8254.755406	0.085441	0.057367	7446.309570
8254.756313	0.085375	0.057367	7523.744629
8254.757201	0.085349	0.057367	7599.534668
8255.797702	1.032400	0.052984	447.029144
8255.798661	1.511301	0.052984	1896.367065
8255.799594	1.499725	0.052984	3295.610840
8255.800506	1.461024	0.052984	4628.064941
8255.801404	1.424015	0.052984	5906.830078
8255.802383	0.937167	0.052984	6824.316406
8255.803287	0.102316	0.052984	6916.809570
8255.804179	0.085258	0.052984	6992.859375
8255.805087	0.085349	0.052984	7070.356445
8255.806008	0.085309	0.052984	7148.925781
8255.806908	0.085291	0.052984	7225.687500
8255.807795	0.085345	0.052984	7301.389160
8255.808729	0.085378	0.052984	7381.132812
8255.809645	0.085261	0.052984	7459.231934
8255.810552	0.085276	0.052984	7536.577148
8255.811443	0.085294	0.052984	7612.574219
8256.811972	1.037611	0.059228	449.285614
8256.812940	1.512803	0.059228	1913.678711
8256.813856	1.499539	0.059228	3287.255859
8256.814786	1.460424	0.059228	4645.449707
8256.815684	1.423458	0.059228	5923.715332
8256.816648	0.930454	0.059228	6820.672852
8256.817577	0.099496	0.059228	6913.104492
8256.818469	0.085195	0.059228	6989.098633
8256.819414	0.085283	0.059228	7069.691406
8256.820333	0.085298	0.059228	7148.080078
8256.821251	0.085276	0.059228	7226.363281
8256.822139	0.085313	0.059228	7302.120605
8256.823075	0.085342	0.059228	7382.000488
8256.823985	0.085356	0.059228	7459.674805
8256.824878	0.085320	0.059228	7535.865234
8256.825806	0.085320	0.059228	7615.041992
8257.862621	1.057244	0.054160	475.759674
8257.863520	1.512360	0.054160	1835.370972
8257.864448	1.501765	0.054160	3229.009033
8257.865383	1.462152	0.054160	4596.121094
8257.866300	1.424553	0.054160	5902.436523
8257.867209	1.020491	0.054160	6830.062500
8257.868149	0.110328	0.054160	6933.770996
8257.869051	0.085232	0.054160	7010.650391
8257.869951	0.085327	0.054160	7087.444824
8257.870839	0.085294	0.054160	7163.186035
8257.871778	0.085400	0.054160	7243.376953
8257.872682	0.085356	0.054160	7320.539062
8257.873583	0.085331	0.054160	7397.421875
8257.874513	0.085334	0.054160	7476.782715
8257.875423	0.085408	0.054160	7554.503906
8257.876333	0.085349	0.054160	7632.171387
8258.883531	1.038838	0.058499	451.894501
8258.884472	1.511349	0.058499	1874.073853
8258.885385	1.501179	0.058499	3244.650391
8258.886287	1.463134	0.058499	4564.396973
8258.887186	1.426293	0.058499	5846.634277
8258.888140	1.023014	0.058499	6822.589844
8258.889039	0.113573	0.058499	6924.691895
8258.889940	0.085188	0.058499	7001.446289
8258.890837	0.085261	0.058499	7077.925781
8258.891789	0.085441	0.058499	7159.265137
8258.892699	0.085327	0.058499	7236.913086
8258.893595	0.085323	0.058499	7313.362793
8258.894528	0.085426	0.058499	7393.065430
8258.895424	0.085444	0.058499	7469.623535
8258.896321	0.085309	0.058499	7546.145508
8258.897206	0.085389	0.058499	7621.715332
8259.926992	1.043492	0.055542	456.006195
8259.927956	1.513209	0.055542	1914.739868
8259.928869	1.500139	0.055542	3284.366699
8259.929773	1.462189	0.055542	4606.185547
8259.930668	1.424883	0.055542	5881.455566
8259.931640	0.975850	0.055542	6829.981445
8259.932539	0.107307	0.055542	6926.450684
8259.933439	0.085173	0.055542	7003.106445
8259.934369	0.085338	0.055542	7082.470703
8259.935271	0.085378	0.055542	7159.481934
8259.936170	0.085236	0.055542	7236.108887
8259.937054	0.085338	0.055542	7311.547852
8259.938003	0.085294	0.055542	7392.492187
8259.938903	0.085331	0.055542	7469.290039
8259.939797	0.085291	0.055542	7545.539551
8259.940686	0.085342	0.055542	7621.408203
8260.954568	1.031536	0.056203	449.749542
8260.955543	1.514949	0.056203	1926.824463
8260.956464	1.499231	0.056203	3307.616211
8260.957395	1.460288	0.056203	4667.144531
8260.958293	1.422645	0.056203	5944.680176
8260.959258	0.916556	0.056203	6829.157227
8260.960151	0.102056	0.056203	6920.292969
8260.961037	0.085199	0.056203	6995.779297
8260.961968	0.085360	0.056203	7075.249512
8260.962877	0.085239	0.056203	7152.731934
8260.963792	0.085243	0.056203	7230.729004
8260.964693	0.085334	0.056203	7307.615234
8260.965655	0.085327	0.056203	7389.700195
8260.966558	0.085272	0.056203	7466.701172
8260.967449	0.085320	0.056203	7542.721191
8260.968376	0.085280	0.056203	7621.775391
8261.990914	1.070244	0.056557	525.489868
8261.991833	1.514923	0.056557	1917.704224
8261.992741	1.500117	0.056557	3279.810547
8261.993633	1.462013	0.056557	4583.926270
8261.994593	1.423414	0.056557	5950.404297
8261.995510	0.967797	0.056557	6837.874023
8261.996403	0.106813	0.056557	6933.257812
8261.997306	0.085144	0.056557	7010.143066
8261.998244	0.085342	0.056557	7090.193848
8261.999152	0.085280	0.056557	7167.627441
8262.000049	0.085283	0.056557	7244.126465
8262.000981	0.085287	0.056557	7323.613770
8262.001884	0.085302	0.056557	7400.641113
8262.002786	0.085298	0.056557	7477.579590
8262.003673	0.085287	0.056557	7553.229004
8262.004622	0.085323	0.056557	7634.201172
8263.024146	1.074086	0.055937	549.931885
8263.025061	1.515051	0.055937	1936.203735
8263.025975	1.499308	0.055937	3306.571045
8263.026871	1.461259	0.055937	4615.858398
8263.027815	1.422356	0.055937	5958.562500
8263.028744	0.930787	0.055937	6823.263672
8263.029648	0.101949	0.055937	6915.425781
8263.030551	0.085181	0.055937	6992.343750
8263.031481	0.085327	0.055937	7071.698242
8263.032387	0.085225	0.055937	7148.911621
8263.033282	0.085305	0.055937	7225.259766
8263.034218	0.085331	0.055937	7305.129395
8263.035120	0.085375	0.055937	7382.137207
8263.036017	0.085236	0.055937	7458.593750
8263.036901	0.085291	0.055937	7533.990723
8263.037833	0.085320	0.055937	7613.508789
8264.056266	1.041295	0.056791	456.087280
8264.057210	1.510968	0.056791	1882.441040
8264.058149	1.499916	0.056791	3290.861816
8264.059062	1.461317	0.056791	4625.044434
8264.059966	1.424037	0.056791	5912.374023
8264.060926	0.957880	0.056791	6831.938477
8264.061826	0.104612	0.056791	6926.088867
8264.062725	0.085181	0.056791	7002.666504
8264.063611	0.085258	0.056791	7078.204590
8264.064562	0.085360	0.056791	7159.381836
8264.065463	0.085258	0.056791	7236.198730
8264.066358	0.085265	0.056791	7312.510742
8264.067292	0.085338	0.056791	7392.216797
8264.068201	0.085371	0.056791	7469.819336
8264.069101	0.085291	0.056791	7546.581055
8264.069991	0.085305	0.056791	7622.502441
8265.093579	1.049033	0.055909	460.525574
8265.094552	1.514703	0.055909	1934.332031
8265.095484	1.498927	0.055909	3331.332031
8265.096388	1.460735	0.055909	4651.836426
8265.097322	1.422916	0.055909	5980.839844
8265.098238	0.955866	0.055909	6856.412598
8265.099143	0.104919	0.055909	6951.364746
8265.100031	0.085140	0.055909	7026.969238
8265.100973	0.085331	0.055909	7107.351074
8265.101869	0.085342	0.055909	7183.817383
8265.102764	0.085291	0.055909	7260.152344
8265.103667	0.085291	0.055909	7337.169922
8265.104613	0.085389	0.055909	7417.948242
8265.105523	0.085254	0.055909	7495.529297
8265.106425	0.085356	0.055909	7572.520996
8265.107361	0.085389	0.055909	7652.445312
8266.123718	1.031576	0.057874	446.672363
8266.124662	1.510913	0.057874	1872.974243
8266.125581	1.500824	0.057874	3252.231445
8266.126499	1.462595	0.057874	4594.894043
8266.127410	1.424806	0.057874	5892.892090
8266.128354	0.986462	0.057874	6824.112793
8266.129253	0.109076	0.057874	6922.171875
8266.130166	0.085184	0.057874	6999.945312
8266.131060	0.085331	0.057874	7076.230957
8266.132015	0.085356	0.057874	7157.746582
8266.132916	0.085313	0.057874	7234.613281
8266.133804	0.085276	0.057874	7310.338379
8266.134735	0.085426	0.057874	7389.870117
8266.135656	0.085334	0.057874	7468.463379
8266.136553	0.085309	0.057874	7544.985352
8266.137487	0.085397	0.057874	7624.746094
8267.161051	1.055478	0.057266	470.743378
8267.161981	1.512561	0.057266	1877.425171
8267.162880	1.501362	0.057266	3227.149902
8267.163832	1.462273	0.057266	4619.233887
8267.164747	1.423975	0.057266	5922.170898
8267.165656	1.005205	0.057266	6835.902344
8267.166542	0.113221	0.057266	6936.216309
8267.167478	0.085269	0.057266	7016.027832
8267.168375	0.085313	0.057266	7092.553223
8267.169269	0.085305	0.057266	7168.815918
8267.170180	0.085338	0.057266	7246.559082
8267.171099	0.085382	0.057266	7325.025391
8267.172009	0.085276	0.057266	7402.626465
8267.172904	0.085309	0.057266	7478.978027
8267.173840	0.085408	0.057266	7558.919434
8267.174730	0.085367	0.057266	7634.896484
8268.190218	1.067194	0.058765	532.529602
8268.191137	1.514637	0.058765	1924.481445
8268.192036	1.499678	0.058765	3272.691650
8268.192938	1.461973	0.058765	4591.391113
8268.193885	1.423099	0.058765	5939.066406
8268.194802	0.968533	0.058765	6827.210937
8268.195703	0.105974	0.058765	6922.693848
8268.196590	0.085302	0.058765	6998.356445
8268.197538	0.085378	0.058765	7079.295410
8268.198444	0.085294	0.058765	7156.571777
8268.199340	0.085313	0.058765	7233.011719
8268.200283	0.085327	0.058765	7313.475098
8268.201183	0.085382	0.058765	7390.318848
8268.202078	0.085309	0.058765	7466.670410
8268.202967	0.085305	0.058765	7542.506836
8268.203903	0.085353	0.058765	7622.396973
8269.228518	1.068285	0.056303	498.889099
8269.229412	1.512451	0.056303	1851.020508
8269.230356	1.500549	0.056303	3267.539062
8269.231276	1.461610	0.056303	4612.220703
8269.232191	1.424238	0.056303	5915.398437
8269.233096	1.002634	0.056303	6822.782227
8269.234049	0.104209	0.056303	6922.093262
8269.234961	0.085155	0.056303	6999.754883
8269.235854	0.085276	0.056303	7075.906250
8269.236789	0.085419	0.056303	7155.772949
8269.237686	0.085389	0.056303	7232.367187
8269.238579	0.085320	0.056303	7308.557617
8269.239463	0.085353	0.056303	7384.009277
8269.240402	0.085371	0.056303	7464.172852
8269.241310	0.085375	0.056303	7541.693359
8269.242211	0.085338	0.056303	7618.583008
8270.257619	1.042643	0.059449	458.762848
8270.258518	1.511070	0.059449	1817.215210
8270.259413	1.503182	0.059449	3162.563477
8270.260394	1.462310	0.059449	4597.089355
8270.261305	1.424604	0.059449	5894.903809
8270.262220	1.026145	0.059449	6833.826660
8270.263105	0.115902	0.059449	6936.399902
8270.264052	0.085265	0.059449	7017.145508
8270.264957	0.085334	0.059449	7094.373047
8270.265847	0.085327	0.059449	7170.314453
8270.266783	0.085364	0.059449	7250.214844
8270.267694	0.085356	0.059449	7327.974609
8270.268601	0.085276	0.059449	7405.319824
8270.269496	0.085243	0.059449	7481.612305
8270.270452	0.085371	0.059449	7563.227051
8270.271347	0.085331	0.059449	7639.598145
8271.295451	1.052838	0.055985	475.882812
8271.296345	1.511613	0.055985	1827.264404
8271.297291	1.500960	0.055985	3247.172119
8271.298216	1.461940	0.055985	4599.466309
8271.299129	1.424498	0.055985	5900.033203
8271.300033	1.010933	0.055985	6813.916016
8271.300984	0.106172	0.055985	6914.885254
8271.301892	0.085221	0.055985	6992.266113
8271.302780	0.085375	0.055985	7068.079102
8271.303706	0.085411	0.055985	7147.169922
8271.304611	0.085334	0.055985	7224.397461
8271.305509	0.085338	0.055985	7301.031250
8271.306397	0.085393	0.055985	7376.860352
8271.307330	0.085389	0.055985	7456.528809
8271.308240	0.085378	0.055985	7534.223145
8271.309142	0.085437	0.055985	7611.287109
8272.325580	1.038721	0.059659	454.959686
8272.326529	1.511290	0.059659	1889.174194
8272.327448	1.500439	0.059659	3268.078125
8272.328356	1.462130	0.059659	4595.692383
8272.329284	1.424370	0.059659	5917.507812
8272.330184	1.026218	0.059659	6841.104492
8272.331118	0.115496	0.059659	6948.977539
8272.332039	0.085181	0.059659	7027.428711
8272.332964	0.085316	0.059659	7106.346191
8272.333855	0.085316	0.059659	7182.362793
8272.334787	0.085261	0.059659	7261.826172
8272.335695	0.085269	0.059659	7339.250000
8272.336604	0.085364	0.059659	7416.845703
8272.337500	0.085272	0.059659	7493.249512
8272.338455	0.085338	0.059659	7574.747559
8272.339380	0.085360	0.059659	7653.705566
8273.361868	1.033828	0.056348	449.715240
8273.362763	1.510609	0.056348	1801.710449
8273.363731	1.501091	0.056348	3254.766602
8273.364648	1.462163	0.056348	4595.570312
8273.365548	1.425308	0.056348	5878.347168
8273.366506	0.998862	0.056348	6835.257324
8273.367406	0.110856	0.056348	6935.027344
8273.368305	0.085276	0.056348	7011.690430
8273.369192	0.085334	0.056348	7087.382324
8273.370129	0.085481	0.056348	7167.478027
8273.371031	0.085327	0.056348	7244.443359
8273.371937	0.085353	0.056348	7321.772949
8273.372833	0.085360	0.056348	7398.255371
8273.373777	0.085393	0.056348	7478.866211
8273.374681	0.085265	0.056348	7555.945801
8273.375580	0.085291	0.056348	7632.622070
8274.393090	1.090148	0.058849	539.623108
8274.394011	1.515157	0.058849	1935.083008
8274.394916	1.500176	0.058849	3292.742187
8274.395809	1.462273	0.058849	4598.551758
8274.396769	1.423235	0.058849	5964.857422
8274.397692	0.954401	0.058849	6845.769043
8274.398579	0.105670	0.058849	6939.498535
8274.399482	0.085298	0.058849	7016.522461
8274.400423	0.085444	0.058849	7096.925781
8274.401331	0.085309	0.058849	7174.386230
8274.402229	0.085338	0.058849	7251.020020
8274.403155	0.085433	0.058849	7330.131348
8274.404050	0.085397	0.058849	7406.561523
8274.404949	0.085367	0.058849	7483.306641
8274.405838	0.085364	0.058849	7559.194824
8274.406774	0.085408	0.058849	7639.136230
8275.427295	1.063784	0.055167	482.957977
8275.428196	1.512297	0.055167	1845.537964
8275.429087	1.502347	0.055167	3184.129395
8275.430025	1.463247	0.055167	4556.655273
8275.430942	1.425894	0.055167	5864.199707
8275.431850	1.062711	0.055167	6829.141602
8275.432779	0.120751	0.055167	6941.318848
8275.433689	0.085360	0.055167	7018.996582
8275.434599	0.085294	0.055167	7096.614258
8275.435503	0.085342	0.055167	7173.763184
8275.436450	0.085349	0.055167	7254.588867
8275.437352	0.085426	0.055167	7331.643066
8275.438248	0.085419	0.055167	7408.178223
8275.439160	0.085345	0.055167	7486.013184
8275.440059	0.085316	0.055167	7562.712402
8275.440992	0.085342	0.055167	7642.336426
8276.460506	1.058709	0.058813	475.360138
8276.461408	1.512008	0.058813	1839.191406
8276.462304	1.502062	0.058813	3185.038574
8276.463241	1.463185	0.058813	4556.042969
8276.464151	1.425835	0.058813	5853.552734
8276.465061	1.070783	0.058813	6827.964844
8276.465976	0.123208	0.058813	6940.700195
8276.466885	0.085283	0.058813	7018.222656
8276.467794	0.085364	0.058813	7095.818359
8276.468683	0.085334	0.058813	7171.680664
8276.469629	0.085378	0.058813	7252.448730
8276.470525	0.085437	0.058813	7329.000488
8276.471424	0.085360	0.058813	7405.739258
8276.472311	0.085298	0.058813	7481.398437
8276.473254	0.085430	0.058813	7561.958496
8276.474162	0.085353	0.058813	7639.458984
8277.494736	1.040321	0.054760	458.781555
8277.495633	1.510507	0.054760	1813.705811
8277.496616	1.499887	0.054760	3288.094238
8277.497533	1.461383	0.054760	4628.182617
8277.498440	1.423733	0.054760	5919.508301
8277.499392	0.960791	0.054760	6834.181152
8277.500289	0.105824	0.054760	6929.105469
8277.501183	0.085210	0.054760	7005.283203
8277.502071	0.085276	0.054760	7081.008301
8277.503012	0.085411	0.054760	7161.380371
8277.503911	0.085349	0.054760	7238.109375
8277.504814	0.085345	0.054760	7315.176270
8277.505706	0.085236	0.054760	7391.206543
8277.506650	0.085280	0.054760	7471.710449
8277.507556	0.085250	0.054760	7548.947266
8277.508454	0.085313	0.054760	7625.558105
8278.527958	1.044287	0.058898	465.752045
8278.528858	1.511620	0.058898	1826.209961
8278.529750	1.502358	0.058898	3166.313477
8278.530716	1.462511	0.058898	4579.099121
8278.531618	1.425509	0.058898	5864.908203
8278.532518	1.069069	0.058898	6827.069824
8278.533473	0.121472	0.058898	6943.075684
8278.534369	0.085214	0.058898	7019.427246
8278.535287	0.085364	0.058898	7097.791016
8278.536183	0.085305	0.058898	7174.224609
8278.537115	0.085313	0.058898	7253.735840
8278.538032	0.085375	0.058898	7332.024414
8278.538951	0.085356	0.058898	7410.466797
8278.539841	0.085378	0.058898	7486.453613
8278.540793	0.085378	0.058898	7567.733887
8278.541690	0.085345	0.058898	7644.288574
8279.561666	1.032067	0.053810	446.884888
8279.562639	1.512510	0.053810	1918.556885
8279.563558	1.499568	0.053810	3296.659668
8279.564472	1.460936	0.053810	4631.955566
8279.565368	1.424040	0.053810	5907.895508
8279.566334	0.956664	0.053810	6832.032715
8279.567243	0.103792	0.053810	6926.379395
8279.568141	0.085214	0.053810	7002.901367
8279.569067	0.085375	0.053810	7081.958496
8279.569974	0.085316	0.053810	7159.340332
8279.570867	0.085214	0.053810	7235.436035
8279.571751	0.085283	0.053810	7310.826172
8279.572685	0.085360	0.053810	7390.552734
8279.573592	0.085400	0.053810	7468.010742
8279.574498	0.085316	0.053810	7545.307129
8279.575388	0.085334	0.053810	7621.254883
8280.595959	1.094304	0.057484	516.511597
8280.596884	1.514330	0.057484	1917.266602
8280.597792	1.500183	0.057484	3279.432861
8280.598685	1.461680	0.057484	4584.712891
8280.599641	1.423279	0.057484	5945.367187
8280.600563	0.973601	0.057484	6843.027344
8280.601449	0.108420	0.057484	6939.087891
8280.602398	0.085250	0.057484	7019.990234
8280.603291	0.085250	0.057484	7096.118652
8280.604185	0.085192	0.057484	7172.279785
8280.605077	0.085217	0.057484	7248.293457
8280.606011	0.085254	0.057484	7327.920410
8280.606922	0.085195	0.057484	7405.533203
8280.607828	0.085214	0.057484	7482.736816
8280.608714	0.085203	0.057484	7558.226562
8280.609664	0.085199	0.057484	7639.165527
8281.630157	1.048114	0.053318	462.218262
8281.631066	1.511968	0.053318	1836.596924
8281.631958	1.501849	0.053318	3176.246582
8281.632915	1.462870	0.053318	4576.212891
8281.633834	1.425081	0.053318	5885.861816
8281.634736	1.052571	0.053318	6835.280762
8281.635685	0.118271	0.053318	6947.520508
8281.636582	0.085239	0.053318	7023.979980
8281.637483	0.085243	0.053318	7100.783691
8281.638378	0.085309	0.053318	7177.135254
8281.639320	0.085397	0.053318	7257.579102
8281.640227	0.085316	0.053318	7334.960937
8281.641132	0.085291	0.053318	7412.148926
8281.642041	0.085243	0.053318	7489.634766
8281.642975	0.085371	0.053318	7569.371582
8281.643881	0.085331	0.053318	7646.681152
8282.662397	1.098061	0.057012	538.050110
8282.663305	1.514008	0.057012	1912.769043
8282.664213	1.500373	0.057012	3275.108154
8282.665106	1.462200	0.057012	4580.852539
8282.666057	1.423945	0.057012	5935.024414
8282.666981	0.982321	0.057012	6842.688477
8282.667878	0.108505	0.057012	6940.017090
8282.668817	0.085217	0.057012	7020.036133
8282.669720	0.085302	0.057012	7097.063477
8282.670611	0.085276	0.057012	7173.044434
8282.671504	0.085247	0.057012	7249.169434
8282.672459	0.085349	0.057012	7330.677734
8282.673359	0.085294	0.057012	7407.442383
8282.674257	0.085309	0.057012	7484.049805
8282.675144	0.085313	0.057012	7559.722168
8282.676092	0.085338	0.057012	7640.622559
8283.698133	1.042500	0.053983	458.700012
8283.699033	1.511125	0.053983	1818.712891
8283.699987	1.500502	0.053983	3250.191406
8283.700915	1.461372	0.053983	4606.344727
8283.701814	1.424462	0.053983	5886.935547
8283.702788	0.960648	0.053983	6822.606934
8283.703694	0.105579	0.053983	6918.261230
8283.704588	0.085082	0.053983	6994.324219
8283.705476	0.085258	0.053983	7070.032715
8283.706406	0.085247	0.053983	7149.312012
8283.707312	0.085210	0.053983	7226.512207
8283.708225	0.085298	0.053983	7304.389160
8283.709116	0.085247	0.053983	7380.343750
8283.710067	0.085203	0.053983	7461.371582
8283.710972	0.085302	0.053983	7538.569336
8283.711860	0.085243	0.053983	7614.265137
8284.729293	1.040134	0.057887	455.578827
8284.730218	1.512070	0.057887	1854.243896
8284.731117	1.502025	0.057887	3204.564453
8284.732072	1.462460	0.057887	4601.213379
8284.732983	1.424733	0.057887	5899.145020
8284.733893	1.037102	0.057887	6842.908203
8284.734780	0.118239	0.057887	6947.785645
8284.735725	0.085217	0.057887	7028.315918
8284.736635	0.085294	0.057887	7105.933594
8284.737532	0.085265	0.057887	7182.416016
8284.738450	0.085294	0.057887	7260.716309
8284.739365	0.085371	0.057887	7338.831055
8284.740275	0.085225	0.057887	7416.385254
8284.741170	0.085206	0.057887	7492.645020
8284.742116	0.085323	0.057887	7573.360840
8284.743021	0.085283	0.057887	7650.541992
8285.766107	1.058610	0.053959	471.081268
8285.767016	1.512012	0.053959	1845.500000
8285.767911	1.502282	0.053959	3190.041992
8285.768873	1.462229	0.053959	4596.706055
8285.769784	1.424637	0.053959	5894.550781
8285.770705	1.017422	0.053959	6831.596680
8285.771600	0.114166	0.053959	6933.775391
8285.772540	0.085247	0.053959	7013.907227
8285.773451	0.085393	0.053959	7091.700195
8285.774340	0.085345	0.053959	7167.572266
8285.775273	0.085353	0.053959	7247.206543
8285.776186	0.085364	0.053959	7325.143555
8285.777088	0.085313	0.053959	7402.095215
8285.777977	0.085280	0.053959	7477.908691
8285.778940	0.085342	0.053959	7560.092773
8285.779847	0.085345	0.053959	7637.500977
8286.796244	1.047301	0.057673	465.001617
8286.797145	1.511261	0.057673	1826.647705
8286.798037	1.502249	0.057673	3166.653320
8286.799006	1.462394	0.057673	4583.712891
8286.799918	1.425048	0.057673	5883.356445
8286.800825	1.049476	0.057673	6835.231445
8286.801759	0.118337	0.057673	6945.758789
8286.802666	0.085280	0.057673	7023.107422
8286.803572	0.085342	0.057673	7100.427246
8286.804461	0.085327	0.057673	7176.283203
8286.805393	0.085389	0.057673	7255.866211
8286.806300	0.085353	0.057673	7333.281250
8286.807200	0.085287	0.057673	7410.039551
8286.808085	0.085360	0.057673	7485.583008
8286.809038	0.085345	0.057673	7566.916992
8286.809946	0.085349	0.057673	7644.414062
8287.834056	1.034443	0.054825	452.051758
8287.834951	1.510049	0.054825	1803.545410
8287.835921	1.500278	0.054825	3258.815430
8287.836836	1.461804	0.054825	4596.366211
8287.837732	1.425125	0.054825	5873.277832
8287.838680	1.005516	0.054825	6826.507324
8287.839584	0.111061	0.054825	6926.906250
8287.840479	0.085170	0.054825	7003.133301
8287.841367	0.085250	0.054825	7078.835449
8287.842309	0.085309	0.054825	7159.196289
8287.843211	0.085214	0.054825	7236.059082
8287.844109	0.085276	0.054825	7312.636719
8287.844999	0.085265	0.054825	7388.522461
8287.845960	0.085287	0.054825	7470.482910
8287.846864	0.085225	0.054825	7547.525879
8287.847754	0.085287	0.054825	7623.431152
8288.863705	1.050249	0.058305	470.511536
8288.864602	1.511536	0.058305	1826.358887
8288.865522	1.501615	0.058305	3207.844727
8288.866473	1.461654	0.058305	4597.877930
8288.867382	1.424798	0.058305	5893.019531
8288.868281	1.046646	0.058305	6833.954102
8288.869219	0.114452	0.058305	6941.310059
8288.870141	0.085173	0.058305	7019.839844
8288.871057	0.085254	0.058305	7097.932617
8288.871949	0.085320	0.058305	7174.038086
8288.872899	0.085272	0.058305	7255.046875
8288.873792	0.085261	0.058305	7331.185059
8288.874680	0.085287	0.058305	7406.919922
8288.875597	0.085320	0.058305	7485.158203
8288.876523	0.085239	0.058305	7564.089844
8288.877431	0.085203	0.058305	7641.453613
8289.902546	1.052769	0.054849	468.482025
8289.903453	1.511807	0.054849	1839.690796
8289.904344	1.501926	0.054849	3177.907227
8289.905322	1.461991	0.054849	4607.734375
8289.906238	1.424282	0.054849	5912.376953
8289.907144	1.037219	0.054849	6852.097656
8289.908084	0.116525	0.054849	6961.630859
8289.908988	0.085265	0.054849	7038.710449
8289.909887	0.085276	0.054849	7115.373535
8289.910774	0.085250	0.054849	7190.990723
8289.911713	0.085313	0.054849	7271.099121
8289.912621	0.085258	0.054849	7348.513184
8289.913525	0.085291	0.054849	7425.615723
8289.914415	0.085375	0.054849	7501.599121
8289.915365	0.085342	0.054849	7582.673828
8289.916270	0.085309	0.054849	7659.878418
8290.931701	1.084830	0.057669	510.955078
8290.932620	1.513583	0.057669	1901.937744
8290.933522	1.500725	0.057669	3255.591797
8290.934430	1.461980	0.057669	4583.069336
8290.935365	1.424048	0.057669	5914.554199
8290.936292	0.994354	0.057669	6836.320312
8290.937191	0.109647	0.057669	6934.893066
8290.938121	0.085217	0.057669	7014.145020
8290.939025	0.085342	0.057669	7091.293945
8290.939928	0.085261	0.057669	7168.284668
8290.940815	0.085265	0.057669	7243.914551
8290.941753	0.085302	0.057669	7323.927246
8290.942663	0.085287	0.057669	7401.538086
8290.943554	0.085203	0.057669	7477.453613
8290.944460	0.085247	0.057669	7554.687012
8290.945381	0.085320	0.057669	7633.266602
8291.970018	1.068479	0.055043	493.637329
8291.970956	1.513938	0.055043	1913.711182
8291.971852	1.499791	0.055043	3257.524170
8291.972811	1.460533	0.055043	4658.175781
8291.973717	1.423231	0.055043	5947.623047
8291.974619	0.993809	0.055043	6844.038574
8291.975566	0.107688	0.055043	6946.019043
8291.976479	0.085236	0.055043	7023.839355
8291.977403	0.085356	0.055043	7102.708496
8291.978290	0.085228	0.055043	7178.306152
8291.979245	0.085356	0.055043	7259.821777
8291.980137	0.085389	0.055043	7335.989258
8291.981025	0.085393	0.055043	7411.818359
8291.981944	0.085345	0.055043	7490.250977
8291.982878	0.085353	0.055043	7569.970703
8291.983781	0.085302	0.055043	7646.998047
8292.998618	1.055325	0.058535	469.619476
8292.999544	1.512539	0.058535	1870.230591
8293.000440	1.501633	0.058535	3215.693848
8293.001388	1.462189	0.058535	4601.848633
8293.002292	1.424762	0.058535	5889.833496
8293.003205	1.032550	0.058535	6832.551758
8293.004090	0.117539	0.058535	6936.573730
8293.005048	0.085323	0.058535	7018.313477
8293.005953	0.085313	0.058535	7095.521484
8293.006847	0.085327	0.058535	7171.803711
8293.007777	0.085331	0.058535	7251.161133
8293.008674	0.085499	0.058535	7327.854004
8293.009571	0.085309	0.058535	7404.375977
8293.010457	0.085430	0.058535	7480.066895
8293.011395	0.085382	0.058535	7560.155273
8293.012299	0.085426	0.058535	7637.380371
8294.036950	1.059503	0.055615	477.835876
8294.037883	1.513140	0.055615	1889.595215
8294.038780	1.500502	0.055615	3235.545410
8294.039722	1.461116	0.055615	4611.916504
8294.040647	1.423414	0.055615	5928.574707
8294.041553	1.006630	0.055615	6840.581055
8294.042488	0.109794	0.055615	6943.238281
8294.043401	0.085177	0.055615	7021.004883
8294.044320	0.085323	0.055615	7099.416992
8294.045206	0.085239	0.055615	7174.938965
8294.046160	0.085265	0.055615	7256.281738
8294.047088	0.085217	0.055615	7335.363281
8294.047983	0.085302	0.055615	7411.708008
8294.048915	0.085214	0.055615	7491.126953
8294.049823	0.085210	0.055615	7568.497559
8294.050740	0.085316	0.055615	7646.732422
8295.067648	1.077664	0.057435	532.365784
8295.068567	1.514806	0.057435	1924.472412
8295.069478	1.499440	0.057435	3290.461914
8295.070376	1.461687	0.057435	4603.056641
8295.071333	1.422502	0.057435	5964.391602
8295.072255	0.952570	0.057435	6842.660645
8295.073144	0.105176	0.057435	6936.162109
8295.074061	0.085140	0.057435	7014.235840
8295.074996	0.085316	0.057435	7094.006348
8295.075903	0.085239	0.057435	7171.318359
8295.076798	0.085261	0.057435	7247.626953
8295.077731	0.085349	0.057435	7327.257812
8295.078628	0.085364	0.057435	7403.829102
8295.079528	0.085342	0.057435	7480.636719
8295.080416	0.085287	0.057435	7556.371582
8295.081369	0.085327	0.057435	7637.688477
8296.103365	1.034235	0.056275	448.857849
8296.104324	1.512832	0.056275	1899.663818
8296.105248	1.499894	0.056275	3285.565674
8296.106161	1.461453	0.056275	4619.872070
8296.107062	1.423993	0.056275	5902.889648
8296.108027	0.955781	0.056275	6825.218750
8296.108931	0.105472	0.056275	6920.565918
8296.109826	0.085203	0.056275	6996.822266
8296.110764	0.085433	0.056275	7076.958984
8296.111668	0.085430	0.056275	7154.187500
8296.112567	0.085371	0.056275	7230.936035
8296.113454	0.085360	0.056275	7306.650391
8296.114386	0.085444	0.056275	7386.284668
8296.115291	0.085360	0.056275	7463.535645
8296.116197	0.085360	0.056275	7540.872070
8296.117085	0.085320	0.056275	7616.636230
8297.137669	1.113296	0.056759	548.854858
8297.138589	1.515070	0.056759	1942.718872
8297.139499	1.499341	0.056759	3307.119141
8297.140390	1.461486	0.056759	4609.302734
8297.141340	1.423381	0.056759	5961.515137
8297.142262	0.970884	0.056759	6856.669922
8297.143150	0.108018	0.056759	6952.589355
8297.144088	0.085276	0.056759	7032.578125
8297.144999	0.085382	0.056759	7110.361328
8297.145900	0.085411	0.056759	7187.316895
8297.146789	0.085342	0.056759	7263.185547
8297.147736	0.085455	0.056759	7344.111816
8297.148641	0.085408	0.056759	7421.405762
8297.149549	0.085338	0.056759	7498.892578
8297.150443	0.085364	0.056759	7575.208008
8297.151379	0.085411	0.056759	7655.152832
8298.166730	1.032012	0.057460	446.861084
8298.167675	1.510990	0.057460	1874.746704
8298.168602	1.500645	0.057460	3265.844238
8298.169502	1.462386	0.057460	4581.992187
8298.170393	1.425703	0.057460	5852.293945
8298.171355	1.003429	0.057460	6817.592773
8298.172265	0.110035	0.057460	6917.725098
8298.173164	0.085221	0.057460	6994.338867
8298.174052	0.085309	0.057460	7070.093262
8298.174999	0.085287	0.057460	7150.859863
8298.175908	0.085287	0.057460	7228.385742
8298.176799	0.085280	0.057460	7304.369629
8298.177746	0.085327	0.057460	7385.174316
8298.178647	0.085331	0.057460	7462.057617
8298.179538	0.085338	0.057460	7538.093750
8298.180423	0.085265	0.057460	7613.553223
8299.207626	1.046785	0.056295	459.538452
8299.208606	1.514681	0.056295	1943.926147
8299.209517	1.499209	0.056295	3309.705566
8299.210413	1.461398	0.056295	4619.118164
8299.211353	1.423722	0.056295	5957.416992
8299.212286	0.945663	0.056295	6839.720215
8299.213199	0.103418	0.056295	6934.140625
8299.214085	0.085184	0.056295	7009.613770
8299.215030	0.085254	0.056295	7090.178711
8299.215926	0.085203	0.056295	7166.520508
8299.216840	0.085261	0.056295	7244.449219
8299.217737	0.085243	0.056295	7320.912109
8299.218693	0.085265	0.056295	7402.425293
8299.219595	0.085188	0.056295	7479.264648
8299.220483	0.085239	0.056295	7554.957031
8299.221427	0.085221	0.056295	7635.405762
8300.231646	1.064751	0.058809	477.008423
8300.232554	1.512070	0.058809	1849.968262
8300.233490	1.500703	0.058809	3254.626465
8300.234391	1.462174	0.058809	4572.045410
8300.235339	1.423762	0.058809	5921.771973
8300.236242	1.012994	0.058809	6836.505859
8300.237130	0.114093	0.058809	6937.820312
8300.238076	0.085188	0.058809	7018.408203
8300.238978	0.085199	0.058809	7095.257812
8300.239894	0.085261	0.058809	7173.356934
8300.240780	0.085254	0.058809	7248.892090
8300.241737	0.085316	0.058809	7330.539551
8300.242635	0.085232	0.058809	7407.077637
8300.243527	0.085291	0.058809	7483.156738
8300.244429	0.085250	0.058809	7560.052246
8300.245365	0.085195	0.058809	7639.794922
8301.277138	1.057551	0.055123	469.552765
8301.278105	1.514619	0.055123	1934.189453
8301.279009	1.499583	0.055123	3289.812012
8301.279901	1.462196	0.055123	4594.090820
8301.280860	1.423696	0.055123	5959.415527
8301.281794	0.952192	0.055123	6848.763184
8301.282690	0.104865	0.055123	6942.721680
8301.283582	0.085133	0.055123	7018.660156
8301.284521	0.085250	0.055123	7098.709961
8301.285425	0.085269	0.055123	7175.792969
8301.286316	0.085210	0.055123	7251.714844
8301.287231	0.085269	0.055123	7329.735352
8301.288143	0.085247	0.055123	7407.480469
8301.289048	0.085291	0.055123	7484.668457
8301.289936	0.085287	0.055123	7560.403320
8301.290875	0.085258	0.055123	7640.459961
8302.297120	1.120064	0.060243	586.913269
8302.298033	1.515432	0.060243	1970.502686
8302.298944	1.498458	0.060243	3335.598145
8302.299837	1.460317	0.060243	4639.661621
8302.300789	1.421818	0.060243	5993.231934
8302.301719	0.924210	0.060243	6852.747559
8302.302618	0.101027	0.060243	6943.570312
8302.303556	0.085214	0.060243	7023.500488
8302.304462	0.085313	0.060243	7100.793457
8302.305358	0.085214	0.060243	7177.145020
8302.306248	0.085140	0.060243	7252.919922
8302.307194	0.085323	0.060243	7333.635742
8302.308088	0.085228	0.060243	7409.829590
8302.308990	0.085170	0.060243	7486.652832
8302.309882	0.085258	0.060243	7562.702637
8302.310837	0.085298	0.060243	7644.162109
8303.345617	1.044888	0.056118	462.885284
8303.346510	1.510499	0.056118	1811.761108
8303.347465	1.500626	0.056118	3244.859131
8303.348388	1.461899	0.056118	4594.192383
8303.349288	1.424850	0.056118	5876.557129
8303.350253	0.990776	0.056118	6832.656250
8303.351154	0.108138	0.056118	6930.088867
8303.352057	0.085122	0.056118	7006.954102
8303.352945	0.085232	0.056118	7082.640137
8303.353889	0.085313	0.056118	7163.175293
8303.354796	0.085280	0.056118	7240.523926
8303.355687	0.085188	0.056118	7316.426270
8303.356614	0.085214	0.056118	7395.419434
8303.357530	0.085298	0.056118	7473.552246
8303.358436	0.085258	0.056118	7550.795410
8303.359332	0.085298	0.056118	7627.222168
8304.361948	1.042998	0.061004	469.349121
8304.362840	1.511338	0.061004	1817.462524
8304.363782	1.501432	0.061004	3231.811523
8304.364707	1.462097	0.061004	4584.251465
8304.365611	1.424945	0.061004	5872.401855
8304.366516	1.051637	0.061004	6824.133301
8304.367468	0.108750	0.061004	6927.663086
8304.368380	0.085126	0.061004	7005.297852
8304.369283	0.085323	0.061004	7082.344727
8304.370178	0.085250	0.061004	7158.643555
8304.371106	0.085254	0.061004	7237.759277
8304.372001	0.085291	0.061004	7314.094238
8304.372887	0.085265	0.061004	7389.639160
8304.373822	0.085302	0.061004	7469.395996
8304.374735	0.085331	0.061004	7547.303223
8304.375642	0.085302	0.061004	7624.671875
8305.415122	1.038658	0.057750	459.087006
8305.416019	1.511030	0.057750	1814.481201
8305.416910	1.502626	0.057750	3153.320801
8305.417886	1.462452	0.057750	4580.674316
8305.418799	1.425059	0.057750	5881.752930
8305.419698	1.053014	0.057750	6828.412598
8305.420624	0.119172	0.057750	6938.766113
8305.421542	0.085122	0.057750	7016.908203
8305.422439	0.085250	0.057750	7093.377441
8305.423326	0.085199	0.057750	7168.948730
8305.424262	0.085276	0.057750	7248.767090
8305.425173	0.085210	0.057750	7326.393555
8305.426091	0.085272	0.057750	7404.673340
8305.426980	0.085250	0.057750	7480.460937
8305.427940	0.085243	0.057750	7562.293945
8305.428840	0.085210	0.057750	7638.982910
8306.427342	1.044869	0.060207	460.787415
8306.428238	1.510836	0.060207	1814.496582
8306.429135	1.502970	0.060207	3162.660645
8306.430114	1.462123	0.060207	4594.079102
8306.431020	1.424524	0.060207	5884.697754
8306.431937	1.032524	0.060207	6831.522461
8306.432823	0.116898	0.060207	6935.094238
8306.433775	0.085177	0.060207	7016.182617
8306.434678	0.085250	0.060207	7093.163574
8306.435575	0.085287	0.060207	7169.666016
8306.436503	0.085283	0.060207	7248.808594
8306.437406	0.085334	0.060207	7325.865723
8306.438307	0.085203	0.060207	7402.633301
8306.439192	0.085320	0.060207	7478.141113
8306.440146	0.085269	0.060207	7559.487305
8306.441050	0.085250	0.060207	7636.553711
8307.484640	1.062638	0.057484	480.312347
8307.485538	1.511869	0.057484	1837.970581
8307.486494	1.500472	0.057484	3272.422363
8307.487407	1.461639	0.057484	4606.899414
8307.488312	1.424542	0.057484	5896.110352
8307.489210	1.032356	0.057484	6823.166016
8307.490145	0.109969	0.057484	6925.987305
8307.491055	0.085148	0.057484	7003.471680
8307.491955	0.085210	0.057484	7080.160645
8307.492888	0.085239	0.057484	7159.688965
8307.493799	0.085302	0.057484	7237.398437
8307.494699	0.085166	0.057484	7314.047852
8307.495592	0.085184	0.057484	7390.117676
8307.496531	0.085349	0.057484	7470.260742
8307.497442	0.085258	0.057484	7547.930176
8307.498335	0.085173	0.057484	7623.989746
8308.492747	1.035220	0.060380	453.426270
8308.493641	1.510356	0.060380	1803.684937
8308.494611	1.500505	0.060380	3259.175049
8308.495509	1.462372	0.060380	4572.384766
8308.496407	1.425337	0.060380	5852.337402
8308.497333	1.028115	0.060380	6804.372070
8308.498267	0.111921	0.060380	6908.906738
8308.499185	0.085129	0.060380	6987.055664
8308.500077	0.085232	0.060380	7063.082520
8308.501040	0.085247	0.060380	7145.174805
8308.501942	0.085261	0.060380	7222.080566
8308.502864	0.085261	0.060380	7300.691406
8308.503754	0.085210	0.060380	7376.528320
8308.504716	0.085184	0.060380	7458.475586
8308.505638	0.085243	0.060380	7537.069336
8308.506525	0.085236	0.060380	7612.673340
8309.554635	1.033403	0.057222	451.597229
8309.555530	1.510371	0.057222	1803.379395
8309.556496	1.500769	0.057222	3253.122314
8309.557411	1.461991	0.057222	4590.843750
8309.558314	1.424916	0.057222	5877.542969
8309.559217	1.021670	0.057222	6800.110840
8309.560144	0.112134	0.057222	6904.059082
8309.561058	0.085078	0.057222	6981.820312
8309.561953	0.085210	0.057222	7058.083008
8309.562890	0.085353	0.057222	7138.058594
8309.563799	0.085313	0.057222	7215.607422
8309.564701	0.085269	0.057222	7292.519531
8309.565588	0.085254	0.057222	7368.139648
8309.566535	0.085280	0.057222	7448.899414
8309.567430	0.085265	0.057222	7525.211426
8309.568330	0.085181	0.057222	7601.874023
8310.559744	1.066985	0.058954	528.157471
8310.560668	1.514583	0.058954	1927.631714
8310.561578	1.499491	0.058954	3292.168457
8310.562475	1.461548	0.058954	4603.176758
8310.563432	1.422495	0.058954	5964.504883
8310.564346	0.946948	0.058954	6830.015625
8310.565248	0.104216	0.058954	6924.018555
8310.566139	0.085115	0.058954	6999.855957
8310.567088	0.085258	0.058954	7080.765625
8310.567996	0.085261	0.058954	7158.182617
8310.568884	0.085250	0.058954	7233.884766
8310.569809	0.085360	0.058954	7312.842773
8310.570712	0.085305	0.058954	7389.873535
8310.571609	0.085287	0.058954	7466.375977
8310.572498	0.085232	0.058954	7542.146973
8310.573439	0.085389	0.058954	7622.498535
8311.623626	1.050293	0.057254	463.179199
8311.624591	1.514158	0.057254	1924.341309
8311.625526	1.499022	0.057254	3325.927246
8311.626425	1.460398	0.057254	4638.825195
8311.627385	1.421635	0.057254	6003.594238
8311.628297	0.936332	0.057254	6857.528809
8311.629185	0.104143	0.057254	6950.007812
8311.630134	0.085232	0.057254	7030.893066
8311.631035	0.085265	0.057254	7107.716797
8311.631942	0.085239	0.057254	7185.028809
8311.632844	0.085228	0.057254	7261.904785
8311.633777	0.085247	0.057254	7341.439941
8311.634690	0.085261	0.057254	7419.283203
8311.635613	0.085243	0.057254	7497.962402
8311.636504	0.085323	0.057254	7573.985840
8311.637455	0.085236	0.057254	7655.044922
8312.627157	1.053424	0.057891	469.827148
8312.628058	1.511473	0.057891	1831.664551
8312.628997	1.500941	0.057891	3241.048340
8312.629924	1.461848	0.057891	4596.181641
8312.630845	1.424099	0.057891	5907.776855
8312.631756	1.014888	0.057891	6832.339355
8312.632683	0.109878	0.057891	6934.196289
8312.633577	0.085137	0.057891	7010.308594
8312.634474	0.085265	0.057891	7086.791016
8312.635362	0.085250	0.057891	7162.493164
8312.636302	0.085349	0.057891	7242.721191
8312.637200	0.085320	0.057891	7319.338379
8312.638095	0.085261	0.057891	7395.646973
8312.639020	0.085283	0.057891	7474.533691
8312.639935	0.085356	0.057891	7552.634766
8312.640842	0.085203	0.057891	7629.913574
8313.691588	1.036113	0.057290	448.637054
8313.692552	1.512382	0.057290	1906.572876
8313.693480	1.499337	0.057290	3297.957764
8313.694392	1.460673	0.057290	4630.091309
8313.695289	1.423766	0.057290	5907.209473
8313.696236	0.974857	0.057290	6830.399414
8313.697141	0.107406	0.057290	6927.602051
8313.698034	0.085078	0.057290	7003.576660
8313.698964	0.085276	0.057290	7082.883301
8313.699859	0.085323	0.057290	7159.248047
8313.700769	0.085228	0.057290	7236.805664
8313.701672	0.085302	0.057290	7313.833008
8313.702606	0.085320	0.057290	7393.521484
8313.703516	0.085338	0.057290	7471.179199
8313.704423	0.085258	0.057290	7548.507812
8313.705307	0.085239	0.057290	7623.859375
8314.694099	1.040310	0.057403	459.817078
8314.695002	1.511385	0.057403	1824.598145
8314.695937	1.501392	0.057403	3228.399170
8314.696857	1.462390	0.057403	4573.797852
8314.697774	1.424798	0.057403	5880.337891
8314.698670	1.054493	0.057403	6825.164062
8314.699626	0.111771	0.057403	6932.017578
8314.700533	0.085155	0.057403	7009.253418
8314.701428	0.085309	0.057403	7085.604980
8314.702312	0.085294	0.057403	7161.004883
8314.703259	0.085291	0.057403	7241.774902
8314.704150	0.085225	0.057403	7317.709961
8314.705044	0.085334	0.057403	7393.999023
8314.705967	0.085356	0.057403	7472.783203
8314.706871	0.085298	0.057403	7549.892578
8314.707773	0.085181	0.057403	7626.725586
8315.759058	1.044657	0.056904	464.872375
8315.760021	1.514022	0.056904	1922.875732
8315.760927	1.499703	0.056904	3281.606934
8315.761854	1.461072	0.056904	4636.020508
8315.762750	1.423455	0.056904	5911.436035
8315.763715	0.947955	0.056904	6826.212891
8315.764615	0.104286	0.056904	6920.070312
8315.765505	0.085184	0.056904	6995.884277
8315.766439	0.085309	0.056904	7075.562500
8315.767349	0.085247	0.056904	7153.136719
8315.768266	0.085247	0.056904	7231.307617
8315.769152	0.085272	0.056904	7306.858887
8315.770089	0.085265	0.056904	7386.751953
8315.770989	0.085206	0.056904	7463.437500
8315.771909	0.085265	0.056904	7541.881348
8315.772796	0.085298	0.056904	7617.540527
8316.762123	1.075957	0.057222	541.206421
8316.763033	1.514535	0.057222	1919.433228
8316.763937	1.499670	0.057222	3275.135254
8316.764833	1.461848	0.057222	4584.951172
8316.765777	1.423378	0.057222	5928.619629
8316.766693	0.983134	0.057222	6829.169922
8316.767598	0.107058	0.057222	6926.057617
8316.768493	0.085228	0.057222	7002.336914
8316.769439	0.085334	0.057222	7083.063477
8316.770352	0.085181	0.057222	7160.833496
8316.771242	0.085280	0.057222	7236.732422
8316.772184	0.085342	0.057222	7317.124512
8316.773081	0.085334	0.057222	7393.669434
8316.773982	0.085291	0.057222	7470.516113
8316.774869	0.085287	0.057222	7546.165527
8316.775805	0.085342	0.057222	7626.045410
8317.826516	1.059119	0.055055	470.248657
8317.827427	1.512118	0.055055	1847.788086
8317.828324	1.501124	0.055055	3194.296387
8317.829298	1.461339	0.055055	4617.640625
8317.830221	1.423510	0.055055	5931.540039
8317.831128	0.999038	0.055055	6837.667480
8317.832069	0.108728	0.055055	6939.980469
8317.832972	0.085195	0.055055	7016.911621
8317.833871	0.085298	0.055055	7093.594238
8317.834761	0.085214	0.055055	7169.434570
8317.835711	0.085338	0.055055	7250.505859
8317.836602	0.085272	0.055055	7326.483398
8317.837511	0.085283	0.055055	7404.005859
8317.838412	0.085287	0.055055	7480.849121
8317.839339	0.085375	0.055055	7559.991699
8317.840250	0.085221	0.055055	7637.627930
8318.830532	1.031715	0.056138	447.764374
8318.831424	1.509862	0.056138	1794.561401
8318.832390	1.500813	0.056138	3244.346680
8318.833301	1.462386	0.056138	4576.580566
8318.834201	1.425429	0.056138	5859.466309
8318.835151	1.018337	0.056138	6826.886719
8318.836055	0.113214	0.056138	6929.232422
8318.836950	0.085155	0.056138	7005.446289
8318.837834	0.085243	0.056138	7080.801270
8318.838777	0.085316	0.056138	7161.254395
8318.839679	0.085320	0.056138	7238.212891
8318.840582	0.085323	0.056138	7315.259766
8318.841470	0.085338	0.056138	7391.040039
8318.842419	0.085393	0.056138	7472.078125
8318.843318	0.085367	0.056138	7548.823242
8318.844214	0.085342	0.056138	7625.289551
8319.893475	1.067531	0.054245	485.726379
8319.894379	1.512250	0.054245	1852.800049
8319.895277	1.501948	0.054245	3201.549561
8319.896229	1.461954	0.054245	4593.330078
8319.897145	1.424103	0.054245	5897.808105
8319.898074	1.005886	0.054245	6832.276367
8319.898960	0.112921	0.054245	6932.324707
8319.899923	0.085177	0.054245	7014.350098
8319.900813	0.085217	0.054245	7090.193359
8319.901700	0.085367	0.054245	7165.914062
8319.902643	0.085353	0.054245	7246.401855
8319.903535	0.085360	0.054245	7322.542969
8319.904464	0.085331	0.054245	7401.815430
8319.905365	0.085305	0.054245	7478.675293
8319.906302	0.085287	0.054245	7558.588867
8319.907217	0.085276	0.054245	7636.616211
8320.900072	1.067219	0.055824	493.055298
8320.900968	1.512056	0.055824	1847.857178
8320.901927	1.499894	0.055824	3286.255371
8320.902830	1.461453	0.055824	4605.947266
8320.903740	1.424110	0.055824	5901.887695
8320.904645	0.993864	0.055824	6801.333984
8320.905607	0.103909	0.055824	6901.293945
8320.906515	0.085206	0.055824	6978.661133
8320.907412	0.085338	0.055824	7055.209473
8320.908343	0.085364	0.055824	7134.683105
8320.909243	0.085386	0.055824	7211.530273
8320.910144	0.085331	0.055824	7288.413086
8320.911031	0.085367	0.055824	7364.133789
8320.911989	0.085400	0.055824	7445.947266
8320.912881	0.085331	0.055824	7522.062500
8320.913784	0.085349	0.055824	7599.132812
8321.960394	1.039083	0.053661	454.079376
8321.961297	1.510851	0.053661	1818.377563
8321.962256	1.500370	0.053661	3257.232422
8321.963180	1.461475	0.053661	4607.634766
8321.964085	1.424260	0.053661	5896.590332
8321.965039	0.980226	0.053661	6831.725586
8321.965935	0.107633	0.053661	6928.165039
8321.966837	0.085225	0.053661	7005.037598
8321.967725	0.085261	0.053661	7080.749512
8321.968672	0.085331	0.053661	7161.557617
8321.969576	0.085313	0.053661	7238.680176
8321.970465	0.085334	0.053661	7314.542480
8321.971381	0.085356	0.053661	7392.729004
8321.972299	0.085342	0.053661	7471.072754
8321.973206	0.085356	0.053661	7548.491211
8321.974105	0.085360	0.053661	7625.229980
8322.969575	1.079982	0.056831	504.351440
8322.970481	1.513158	0.056831	1875.272583
8322.971426	1.500066	0.056831	3292.834961
8322.972344	1.461028	0.056831	4634.058594
8322.973254	1.423623	0.056831	5929.555664
8322.974156	1.015367	0.056831	6845.416992
8322.975120	0.104447	0.056831	6946.104004
8322.976019	0.085221	0.056831	7022.717773
8322.976922	0.085294	0.056831	7099.738281
8322.977809	0.085302	0.056831	7175.400879
8322.978755	0.085349	0.056831	7256.141113
8322.979659	0.085276	0.056831	7333.230469
8322.980557	0.085258	0.056831	7409.791992
8322.981499	0.085338	0.056831	7490.180664
8322.982409	0.085345	0.056831	7567.845215
8322.983311	0.085323	0.056831	7644.807129
8324.026828	1.038838	0.053806	456.049835
8324.027727	1.510657	0.053806	1814.130249
8324.028707	1.499875	0.053806	3284.008301
8324.029622	1.461251	0.053806	4621.053223
8324.030520	1.424344	0.053806	5900.114258
8324.031477	0.968657	0.053806	6827.119141
8324.032382	0.106494	0.053806	6923.496094
8324.033277	0.085151	0.053806	6999.706543
8324.034164	0.085287	0.053806	7075.355957
8324.035107	0.085382	0.053806	7155.871094
8324.036018	0.085367	0.053806	7233.640625
8324.036918	0.085294	0.053806	7310.405273
8324.037828	0.085269	0.053806	7387.999512
8324.038751	0.085382	0.053806	7466.807129
8324.039653	0.085323	0.053806	7543.769043
8324.040543	0.085309	0.053806	7619.693848
8325.039072	1.067520	0.058475	483.586365
8325.039975	1.511781	0.058475	1848.724609
8325.040911	1.500872	0.058475	3253.540527
8325.041805	1.462299	0.058475	4560.835449
8325.042770	1.423744	0.058475	5934.748047
8325.043681	0.994186	0.058475	6840.451172
8325.044569	0.110837	0.058475	6938.875000
8325.045504	0.085232	0.058475	7018.566895
8325.046416	0.085269	0.058475	7096.332031
8325.047338	0.085323	0.058475	7175.000488
8325.048232	0.085298	0.058475	7251.256836
8325.049185	0.085305	0.058475	7332.552734
8325.050090	0.085349	0.058475	7409.793457
8325.051012	0.085316	0.058475	7488.455078
8325.051899	0.085298	0.058475	7564.114258
8325.052849	0.085203	0.058475	7645.056641
8326.091730	1.050223	0.053935	467.349396
8326.092649	1.512305	0.053935	1857.157349
8326.093553	1.501761	0.053935	3214.749512
8326.094489	1.462943	0.053935	4584.064453
8326.095396	1.425385	0.053935	5876.888184
8326.096309	1.048967	0.053935	6834.595215
8326.097195	0.120963	0.053935	6941.768555
8326.098127	0.085188	0.053935	7021.163574
8326.099034	0.085283	0.053935	7098.515625
8326.099931	0.085331	0.053935	7175.057129
8326.100817	0.085287	0.053935	7250.621094
8326.101766	0.085327	0.053935	7331.596680
8326.102677	0.085250	0.053935	7409.259766
8326.103572	0.085250	0.053935	7485.558594
8326.104498	0.085375	0.053935	7564.615723
8326.105393	0.085382	0.053935	7641.032715
8327.108577	1.061122	0.058064	481.749298
8327.109481	1.511840	0.058064	1848.452271
8327.110370	1.502509	0.058064	3184.182373
8327.111325	1.462284	0.058064	4580.663574
8327.112245	1.424385	0.058064	5891.097656
8327.113162	1.021908	0.058064	6828.187012
8327.114050	0.114910	0.058064	6930.226562
8327.115008	0.085382	0.058064	7012.022461
8327.115911	0.085342	0.058064	7089.085937
8327.116808	0.085349	0.058064	7165.644043
8327.117742	0.085356	0.058064	7245.367187
8327.118641	0.085342	0.058064	7322.089355
8327.119535	0.085313	0.058064	7398.358887
8327.120419	0.085287	0.058064	7473.752441
8327.121363	0.085334	0.058064	7554.308105
8327.122268	0.085323	0.058064	7631.525879
8328.158179	1.054713	0.054616	476.730347
8328.159101	1.512231	0.054616	1871.007690
8328.160003	1.501132	0.054616	3225.028320
8328.160940	1.462137	0.054616	4595.051270
8328.161857	1.424110	0.054616	5900.960449
8328.162769	1.018374	0.054616	6829.717773
8328.163657	0.114858	0.054616	6931.711914
8328.164608	0.085225	0.054616	7012.760742
8328.165511	0.085309	0.054616	7089.794434
8328.166413	0.085298	0.054616	7166.732910
8328.167299	0.085254	0.054616	7242.268066
8328.168245	0.085309	0.054616	7322.970215
8328.169147	0.085265	0.054616	7399.878906
8328.170032	0.085203	0.054616	7475.283203
8328.170959	0.085349	0.054616	7554.401855
8328.171865	0.085360	0.054616	7631.738281
8329.179094	1.053809	0.057109	473.160034
8329.179993	1.511686	0.057109	1832.165527
8329.180884	1.501666	0.057109	3170.150146
8329.181846	1.462273	0.057109	4576.856934
8329.182758	1.424993	0.057109	5876.450195
8329.183660	1.058518	0.057109	6831.233398
8329.184598	0.120406	0.057109	6944.174805
8329.185504	0.085173	0.057109	7021.341797
8329.186401	0.085331	0.057109	7097.883301
8329.187287	0.085309	0.057109	7173.466797
8329.188221	0.085426	0.057109	7253.254883
8329.189131	0.085206	0.057109	7330.792480
8329.190024	0.085331	0.057109	7406.992676
8329.190957	0.085349	0.057109	7486.623535
8329.191860	0.085323	0.057109	7563.670410
8329.192760	0.085298	0.057109	7640.438477
8330.222539	1.033293	0.056191	450.515961
8330.223435	1.510444	0.056191	1803.874023
8330.224400	1.500630	0.056191	3251.981934
8330.225315	1.461779	0.056191	4589.509277
8330.226231	1.424308	0.056191	5894.175293
8330.227135	1.002642	0.056191	6800.563477
8330.228079	0.108761	0.056191	6903.233887
8330.228980	0.085236	0.056191	6980.031250
8330.229874	0.085291	0.056191	7056.280762
8330.230807	0.085360	0.056191	7135.921875
8330.231708	0.085367	0.056191	7212.837891
8330.232609	0.085276	0.056191	7289.671387
8330.233497	0.085327	0.056191	7365.441895
8330.234448	0.085349	0.056191	7446.608887
8330.235349	0.085320	0.056191	7523.481934
8330.236256	0.085353	0.056191	7600.896973
8331.247595	1.078663	0.057991	500.499786
8331.248510	1.513323	0.057991	1885.190063
8331.249419	1.500699	0.057991	3249.325684
8331.250311	1.462482	0.057991	4553.859375
8331.251266	1.424319	0.057991	5914.083984
8331.252185	1.005623	0.057991	6838.250977
8331.253075	0.112694	0.057991	6938.548828
8331.254007	0.085276	0.057991	7018.025879
8331.254913	0.085455	0.057991	7095.448242
8331.255811	0.085287	0.057991	7172.035645
8331.256699	0.085371	0.057991	7247.845215
8331.257650	0.085393	0.057991	7329.054199
8331.258547	0.085349	0.057991	7405.612305
8331.259445	0.085349	0.057991	7482.255859
8331.260332	0.085404	0.057991	7558.009277
8331.261263	0.085386	0.057991	7637.503418
8332.286926	1.051198	0.057109	463.578125
8332.287888	1.513748	0.057109	1919.803345
8332.288801	1.499879	0.057109	3289.192871
8332.289696	1.461907	0.057109	4597.599609
8332.290627	1.423949	0.057109	5923.295898
8332.291559	0.985840	0.057109	6842.098633
8332.292462	0.108259	0.057109	6939.856934
8332.293349	0.085250	0.057109	7015.474121
8332.294304	0.085291	0.057109	7096.926758
8332.295208	0.085294	0.057109	7174.032715
8332.296106	0.085309	0.057109	7250.640137
8332.297027	0.085302	0.057109	7329.202637
8332.297941	0.085415	0.057109	7407.271973
8332.298846	0.085298	0.057109	7484.466309
8332.299732	0.085247	0.057109	7559.994629
8332.300660	0.085404	0.057109	7639.249512
8333.318666	1.115691	0.056734	561.192566
8333.319579	1.514517	0.056734	1943.946289
8333.320508	1.498498	0.056734	3336.051270
8333.321402	1.460112	0.056734	4641.391602
8333.322349	1.422023	0.056734	5988.046875
8333.323284	0.923639	0.056734	6851.649414
8333.324168	0.102697	0.056734	6942.433105
8333.325120	0.085221	0.056734	7023.563477
8333.326037	0.085309	0.056734	7101.791504
8333.326953	0.085258	0.056734	7179.887207
8333.327849	0.085287	0.056734	7256.304199
8333.328795	0.085364	0.056734	7337.058105
8333.329718	0.085309	0.056734	7415.798340
8333.330609	0.085331	0.056734	7491.828125
8333.331556	0.085320	0.056734	7572.625977
8333.332456	0.085254	0.056734	7649.354492
8334.352333	1.040607	0.057697	457.866974
8334.353227	1.510433	0.057697	1808.194458
8334.354203	1.500143	0.057697	3272.333984
8334.355117	1.461617	0.057697	4608.251953
8334.356022	1.424301	0.057697	5897.244141
8334.356977	0.979801	0.057697	6832.954102
8334.357875	0.108270	0.057697	6930.180664
8334.358771	0.085254	0.057697	7006.568359
8334.359657	0.085367	0.057697	7082.204102
8334.360602	0.085452	0.057697	7162.956055
8334.361503	0.085342	0.057697	7239.849121
8334.362405	0.085331	0.057697	7316.817383
8334.363293	0.085313	0.057697	7392.574707
8334.364245	0.085452	0.057697	7473.924805
8334.365149	0.085323	0.057697	7551.057129
8334.366047	0.085345	0.057697	7627.697266
8335.388109	1.046107	0.056082	463.425476
8335.389012	1.511279	0.056082	1828.110596
8335.389907	1.501476	0.056082	3171.931396
8335.390877	1.461910	0.056082	4589.984375
8335.391788	1.424436	0.056082	5887.645508
8335.392696	1.035634	0.056082	6828.000977
8335.393627	0.114591	0.056082	6934.685059
8335.394527	0.085345	0.056082	7011.496094
8335.395425	0.085338	0.056082	7088.129883
8335.396316	0.085367	0.056082	7164.192383
8335.397266	0.085393	0.056082	7245.315918
8335.398166	0.085386	0.056082	7322.163086
8335.399061	0.085342	0.056082	7398.543945
8335.399954	0.085356	0.056082	7474.767090
8335.400901	0.085375	0.056082	7555.617187
8335.401812	0.085364	0.056082	7633.383789
8336.419316	1.076616	0.057733	512.469299
8336.420220	1.513480	0.057733	1880.655273
8336.421169	1.499308	0.057733	3303.498291
8336.422087	1.460087	0.057733	4643.857910
8336.423015	1.422466	0.057733	5963.906250
8336.423914	0.964772	0.057733	6831.235840
8336.424875	0.100195	0.057733	6927.523437
8336.425769	0.085228	0.057733	7003.717285
8336.426656	0.085382	0.057733	7079.451172
8336.427599	0.085389	0.057733	7159.973145
8336.428501	0.085331	0.057733	7236.941406
8336.429404	0.085316	0.057733	7313.981934
8336.430291	0.085309	0.057733	7389.650879
8336.431246	0.085316	0.057733	7471.127930
8336.432146	0.085280	0.057733	7547.879395
8336.433036	0.085316	0.057733	7623.810547
8337.456078	1.045349	0.055655	464.135010
8337.457057	1.514333	0.055655	1946.667480
8337.457968	1.498612	0.055655	3311.903076
8337.458872	1.460819	0.055655	4632.483398
8337.459784	1.423147	0.055655	5930.393555
8337.460730	0.955664	0.055655	6834.451660
8337.461636	0.104191	0.055655	6928.848633
8337.462534	0.085243	0.055655	7005.396973
8337.463466	0.085327	0.055655	7084.921875
8337.464369	0.085386	0.055655	7162.025391
8337.465266	0.085316	0.055655	7238.554199
8337.466151	0.085345	0.055655	7314.084961
8337.467095	0.085430	0.055655	7394.730469
8337.467994	0.085302	0.055655	7471.416504
8337.468890	0.085309	0.055655	7547.853027
8337.469797	0.085298	0.055655	7625.218262
8338.485192	1.039622	0.058358	456.393890
8338.486091	1.510287	0.058358	1814.141846
8338.487066	1.499509	0.058358	3276.163330
8338.487992	1.460771	0.058358	4628.837891
8338.488899	1.423356	0.058358	5919.821289
8338.489863	0.946758	0.058358	6832.495605
8338.490767	0.103341	0.058358	6925.916016
8338.491668	0.085170	0.058358	7002.653809
8338.492559	0.085309	0.058358	7078.664062
8338.493502	0.085360	0.058358	7159.158691
8338.494399	0.085316	0.058358	7235.687500
8338.495300	0.085298	0.058358	7312.541016
8338.496188	0.085236	0.058358	7388.230469
8338.497140	0.085364	0.058358	7469.496582
8338.498046	0.085236	0.058358	7546.720215
8338.498943	0.085239	0.058358	7623.179687
8339.524565	1.050194	0.056904	470.486938
8339.525459	1.511023	0.056904	1821.341431
8339.526391	1.501706	0.056904	3220.931885
8339.527307	1.462862	0.056904	4560.914062
8339.528223	1.425443	0.056904	5866.620117
8339.529131	1.056914	0.056904	6826.297852
8339.530081	0.112405	0.056904	6933.082520
8339.530985	0.085177	0.056904	7010.082520
8339.531881	0.085203	0.056904	7086.424316
8339.532769	0.085225	0.056904	7162.104004
8339.533723	0.085356	0.056904	7243.534180
8339.534631	0.085265	0.056904	7320.954590
8339.535528	0.085261	0.056904	7397.434082
8339.536456	0.085269	0.056904	7476.563477
8339.537364	0.085327	0.056904	7554.040527
8339.538265	0.085210	0.056904	7630.814453
8340.551643	1.047528	0.059486	466.150024
8340.552542	1.510902	0.059486	1824.450928
8340.553438	1.501729	0.059486	3169.999756
8340.554405	1.462002	0.059486	4583.755859
8340.555301	1.425245	0.059486	5860.775879
8340.556200	1.067633	0.059486	6820.578125
8340.557129	0.122369	0.059486	6934.259277
8340.558048	0.085104	0.059486	7012.469727
8340.558951	0.085236	0.059486	7089.437500
8340.559839	0.085309	0.059486	7165.191895
8340.560775	0.085269	0.059486	7245.003418
8340.561682	0.085258	0.059486	7322.332031
8340.562601	0.085258	0.059486	7400.683594
8340.563490	0.085239	0.059486	7476.461426
8340.564445	0.085177	0.059486	7557.805664
8340.565334	0.085126	0.059486	7633.482422
8341.592016	1.038955	0.056912	455.062317
8341.592968	1.511316	0.056912	1893.834961
8341.593881	1.500147	0.056912	3263.468750
8341.594782	1.462159	0.056912	4580.874512
8341.595676	1.425176	0.056912	5854.981445
8341.596637	1.003260	0.056912	6819.114746
8341.597543	0.109709	0.056912	6918.511719
8341.598449	0.085159	0.056912	6995.665527
8341.599346	0.085323	0.056912	7072.200684
8341.600298	0.085353	0.056912	7153.456543
8341.601203	0.085188	0.056912	7230.551758
8341.602094	0.085353	0.056912	7306.601074
8341.603036	0.085400	0.056912	7387.048340
8341.603940	0.085316	0.056912	7464.174316
8341.604835	0.085294	0.056912	7540.512695
8341.605723	0.085294	0.056912	7616.253906
8342.619081	1.045935	0.059534	457.073608
8342.620044	1.514088	0.059534	1915.140503
8342.620976	1.498689	0.059534	3311.918701
8342.621887	1.460394	0.059534	4642.337891
8342.622826	1.422561	0.059534	5978.122559
8342.623754	0.940734	0.059534	6851.123535
8342.624649	0.103740	0.059534	6943.971191
8342.625536	0.085199	0.059534	7019.542480
8342.626491	0.085345	0.059534	7101.047363
8342.627388	0.085320	0.059534	7177.579102
8342.628284	0.085294	0.059534	7254.002930
8342.629169	0.085258	0.059534	7329.456055
8342.630112	0.085371	0.059534	7409.960937
8342.631020	0.085232	0.059534	7487.351562
8342.631915	0.085254	0.059534	7563.653809
8342.632850	0.085305	0.059534	7643.414062
8343.658954	1.039116	0.056251	455.132874
8343.659933	1.511920	0.056251	1935.302734
8343.660846	1.499099	0.056251	3303.980225
8343.661754	1.460845	0.056251	4630.427246
8343.662648	1.423846	0.056251	5903.345703
8343.663609	0.956569	0.056251	6822.608398
8343.664512	0.104993	0.056251	6917.416992
8343.665402	0.085261	0.056251	6993.299316
8343.666322	0.085342	0.056251	7071.813965
8343.667251	0.085338	0.056251	7151.093262
8343.668159	0.085298	0.056251	7228.543945
8343.669049	0.085367	0.056251	7304.520996
8343.669984	0.085400	0.056251	7384.370117
8343.670887	0.085302	0.056251	7461.397461
8343.671785	0.085371	0.056251	7538.060547
8343.672672	0.085243	0.056251	7613.670898
8344.687057	1.049081	0.058031	463.693695
8344.687957	1.510917	0.058031	1823.518799
8344.688855	1.501670	0.058031	3172.018311
8344.689800	1.462852	0.058031	4554.413086
8344.690722	1.424751	0.058031	5868.033203
8344.691629	1.053230	0.058031	6823.312988
8344.692564	0.118806	0.058031	6934.396973
8344.693474	0.085181	0.058031	7011.911133
8344.694373	0.085173	0.058031	7088.481934
8344.695258	0.085276	0.058031	7163.951172
8344.696214	0.085269	0.058031	7245.467773
8344.697116	0.085316	0.058031	7322.422852
8344.698013	0.085294	0.058031	7398.931641
8344.698904	0.085342	0.058031	7474.971191
8344.699846	0.085430	0.058031	7555.445801
8344.700746	0.085236	0.058031	7632.157715
8345.725959	1.088610	0.055337	544.304810
8345.726880	1.514561	0.055337	1939.215088
8345.727795	1.498780	0.055337	3310.599121
8345.728690	1.460647	0.055337	4617.877930
8345.729649	1.422045	0.055337	5981.618652
8345.730566	0.945597	0.055337	6848.730957
8345.731451	0.104985	0.055337	6941.643066
8345.732377	0.085225	0.055337	7020.561035
8345.733289	0.085327	0.055337	7098.379395
8345.734196	0.085367	0.055337	7175.807617
8345.735092	0.085305	0.055337	7252.241211
8345.736022	0.085419	0.055337	7331.680664
8345.736924	0.085360	0.055337	7408.675293
8345.737825	0.085327	0.055337	7485.555176
8345.738712	0.085313	0.055337	7561.227539
8345.739660	0.085397	0.055337	7642.183594
8346.754514	1.048220	0.058475	464.361542
8346.755409	1.510847	0.058475	1816.569824
8346.756364	1.500582	0.058475	3249.625977
8346.757286	1.461683	0.058475	4597.297852
8346.758189	1.424388	0.058475	5883.520508
8346.759090	1.034139	0.058475	6815.280273
8346.760031	0.111259	0.058475	6919.974609
8346.760933	0.085133	0.058475	6996.764648
8346.761820	0.085243	0.058475	7072.375000
8346.762750	0.085232	0.058475	7151.640625
8346.763662	0.085294	0.058475	7229.428711
8346.764568	0.085195	0.058475	7306.615723
8346.765453	0.085276	0.058475	7382.084961
8346.766385	0.085280	0.058475	7461.565430
8346.767289	0.085173	0.058475	7538.562012
8346.768185	0.085217	0.058475	7614.916504
8347.791305	1.035176	0.055417	451.336639
8347.792280	1.510470	0.055417	1924.044800
8347.793192	1.499103	0.055417	3291.226562
8347.794102	1.460728	0.055417	4620.488770
8347.794997	1.424209	0.055417	5895.155762
8347.795960	0.964160	0.055417	6823.642090
8347.796861	0.105337	0.055417	6918.550781
8347.797762	0.085254	0.055417	6995.364746
8347.798649	0.085305	0.055417	7071.030273
8347.799591	0.085415	0.055417	7151.491211
8347.800498	0.085320	0.055417	7228.876465
8347.801387	0.085367	0.055417	7304.768066
8347.802310	0.085408	0.055417	7383.599609
8347.803215	0.085393	0.055417	7460.880371
8347.804121	0.085331	0.055417	7538.189941
8347.805007	0.085320	0.055417	7613.783203
8348.821970	1.041035	0.057641	454.932312
8348.822933	1.513198	0.057641	1912.142090
8348.823859	1.499048	0.057641	3300.260254
8348.824757	1.461171	0.057641	4612.391602
8348.825699	1.422887	0.057641	5952.750977
8348.826613	0.969943	0.057641	6839.278320
8348.827511	0.107245	0.057641	6935.583984
8348.828402	0.085173	0.057641	7011.473633
8348.829334	0.085323	0.057641	7090.995117
8348.830248	0.085323	0.057641	7168.980957
8348.831151	0.085309	0.057641	7246.014648
8348.832039	0.085291	0.057641	7321.752441
8348.832985	0.085342	0.057641	7402.485840
8348.833895	0.085305	0.057641	7480.113770
8348.834791	0.085280	0.057641	7556.524414
8348.835676	0.085236	0.057641	7631.958008
8349.860323	1.065370	0.054579	490.070129
8349.861219	1.511660	0.054579	1844.517578
8349.862171	1.500439	0.054579	3272.936035
8349.863075	1.461797	0.054579	4594.400391
8349.863982	1.424550	0.054579	5886.466797
8349.864886	1.043445	0.054579	6829.741211
8349.865811	0.111929	0.054579	6933.275391
8349.866718	0.085258	0.054579	7010.604004
8349.867629	0.085309	0.054579	7088.320312
8349.868521	0.085382	0.054579	7164.480957
8349.869454	0.085400	0.054579	7244.159668
8349.870363	0.085302	0.054579	7321.698730
8349.871254	0.085309	0.054579	7397.708984
8349.872194	0.085367	0.054579	7477.954590
8349.873089	0.085364	0.054579	7554.354980
8349.873990	0.085261	0.054579	7631.175293
8350.888958	1.095157	0.057617	525.675537
8350.889877	1.513942	0.057617	1916.987915
8350.890780	1.499952	0.057617	3271.444824
8350.891672	1.461595	0.057617	4575.187988
8350.892642	1.423004	0.057617	5955.501953
8350.893567	0.967229	0.057617	6850.188477
8350.894454	0.107311	0.057617	6945.373047
8350.895393	0.085276	0.057617	7025.447266
8350.896302	0.085375	0.057617	7103.052734
8350.897210	0.085316	0.057617	7180.520020
8350.898100	0.085313	0.057617	7256.448242
8350.899057	0.085430	0.057617	7338.204590
8350.899951	0.085320	0.057617	7414.480469
8350.900854	0.085356	0.057617	7491.557129
8350.901749	0.085287	0.057617	7567.888672
8350.902685	0.085371	0.057617	7647.795898
8351.927264	1.062133	0.055264	483.270325
8351.928211	1.513429	0.055264	1916.487549
8351.929104	1.499498	0.055264	3255.539551
8351.930063	1.460090	0.055264	4655.766113
8351.930967	1.422777	0.055264	5941.956543
8351.931863	1.000510	0.055264	6838.413574
8351.932811	0.109955	0.055264	6942.650879
8351.933719	0.085261	0.055264	7020.067871
8351.934627	0.085334	0.055264	7097.551758
8351.935528	0.085331	0.055264	7174.434570
8351.936485	0.085305	0.055264	7256.071777
8351.937390	0.085280	0.055264	7333.250000
8351.938280	0.085298	0.055264	7409.165039
8351.939228	0.085356	0.055264	7490.083008
8351.940139	0.085261	0.055264	7567.755859
8351.941038	0.085360	0.055264	7644.494629
8352.956371	1.048286	0.057895	464.390778
8352.957269	1.510931	0.057895	1821.207153
8352.958167	1.501761	0.057895	3169.789062
8352.959125	1.462412	0.057895	4570.779785
8352.960039	1.424842	0.057895	5873.085937
8352.960948	1.052278	0.057895	6829.606445
8352.961884	0.117642	0.057895	6939.718750
8352.962783	0.085247	0.057895	7016.355469
8352.963681	0.085353	0.057895	7093.002441
8352.964569	0.085360	0.057895	7168.802246
8352.965507	0.085364	0.057895	7248.873535
8352.966404	0.085364	0.057895	7325.444824
8352.967304	0.085349	0.057895	7402.258789
8352.968204	0.085426	0.057895	7479.142090
8352.969145	0.085404	0.057895	7559.507324
8352.970058	0.085360	0.057895	7637.440918
8353.994696	1.049282	0.054527	459.585602
8353.995668	1.514323	0.054527	1931.507080
8353.996595	1.498638	0.054527	3320.744141
8353.997498	1.460475	0.054527	4639.552734
8353.998446	1.422125	0.054527	5987.727539
8353.999372	0.931274	0.054527	6850.087891
8354.000272	0.102473	0.054527	6942.313477
8354.001161	0.085217	0.054527	7018.071777
8354.002109	0.085287	0.054527	7098.923828
8354.003016	0.085323	0.054527	7176.312012
8354.003905	0.085404	0.054527	7252.236328
8354.004814	0.085334	0.054527	7329.805176
8354.005745	0.085419	0.054527	7409.330078
8354.006651	0.085287	0.054527	7486.600098
8354.007549	0.085276	0.054527	7563.177734
8354.008477	0.085386	0.054527	7642.415527
8355.024327	1.032429	0.057508	450.139130
8355.025286	1.510203	0.057508	1898.423462
8355.026198	1.499612	0.057508	3266.069336
8355.027111	1.461464	0.057508	4600.385742
8355.028006	1.424722	0.057508	5875.511719
8355.028965	0.988868	0.057508	6823.836426
8355.029875	0.107725	0.057508	6921.865723
8355.030772	0.085210	0.057508	6998.298828
8355.031661	0.085342	0.057508	7074.167480
8355.032612	0.085342	0.057508	7155.327637
8355.033508	0.085309	0.057508	7231.764160
8355.034397	0.085360	0.057508	7307.649414
8355.035328	0.085298	0.057508	7387.061523
8355.036228	0.085375	0.057508	7463.898926
8355.037138	0.085338	0.057508	7541.556641
8355.038026	0.085294	0.057508	7617.297852
8356.061701	1.112355	0.055063	551.727966
8356.062629	1.514956	0.055063	1957.607178
8356.063533	1.499106	0.055063	3312.799316
8356.064428	1.460878	0.055063	4620.284668
8356.065387	1.422125	0.055063	5984.102539
8356.066308	0.949691	0.055063	6858.768066
8356.067215	0.102781	0.055063	6951.990234
8356.068150	0.085166	0.055063	7031.620605
8356.069053	0.085345	0.055063	7108.687500
8356.069947	0.085243	0.055063	7184.894531
8356.070833	0.085283	0.055063	7260.455566
8356.071773	0.085298	0.055063	7340.635742
8356.072683	0.085265	0.055063	7418.226562
8356.073580	0.085272	0.055063	7494.715820
8356.074467	0.085254	0.055063	7570.335937
8356.075413	0.085313	0.055063	7651.041504
8357.091804	1.049685	0.057033	462.911072
8357.092724	1.511521	0.057033	1853.510254
8357.093629	1.501304	0.057033	3212.189941
8357.094552	1.462954	0.057033	4562.496582
8357.095473	1.424868	0.057033	5874.799805
8357.096397	1.029500	0.057033	6826.057617
8357.097287	0.116865	0.057033	6930.067871
8357.098232	0.085309	0.057033	7010.684570
8357.099132	0.085338	0.057033	7087.488770
8357.100029	0.085367	0.057033	7164.063477
8357.100921	0.085323	0.057033	7240.171875
8357.101861	0.085400	0.057033	7320.448242
8357.102768	0.085411	0.057033	7397.916504
8357.103667	0.085287	0.057033	7474.589355
8357.104588	0.085316	0.057033	7553.165527
8357.105493	0.085433	0.057033	7630.482910
8358.129625	1.056401	0.056388	478.549835
8358.130518	1.511243	0.056388	1828.089600
8358.131469	1.500286	0.056388	3254.861328
8358.132384	1.461409	0.056388	4592.050293
8358.133291	1.424465	0.056388	5884.040039
8358.134196	1.029298	0.056388	6815.554687
8358.135149	0.107249	0.056388	6917.762695
8358.136054	0.085100	0.056388	6994.778320
8358.136951	0.085250	0.056388	7071.247559
8358.137894	0.085283	0.056388	7151.669434
8358.138798	0.085280	0.056388	7228.762207
8358.139691	0.085316	0.056388	7304.949707
8358.140576	0.085261	0.056388	7380.405762
8358.141501	0.085320	0.056388	7459.326660
8358.142407	0.085316	0.056388	7536.623047
8358.143306	0.085225	0.056388	7613.239746
8359.158728	1.042657	0.058394	455.641327
8359.159693	1.513751	0.058394	1916.411255
8359.160621	1.498938	0.058394	3307.425781
8359.161527	1.460552	0.058394	4630.685547
8359.162493	1.421444	0.058394	6003.800781
8359.163408	0.926697	0.058394	6851.728516
8359.164301	0.102751	0.058394	6943.485352
8359.165224	0.085225	0.058394	7022.147461
8359.166134	0.085280	0.058394	7099.751953
8359.167031	0.085247	0.058394	7176.218262
8359.167920	0.085265	0.058394	7252.018555
8359.168855	0.085334	0.058394	7331.806152
8359.169765	0.085291	0.058394	7409.420410
8359.170680	0.085302	0.058394	7487.471191
8359.171575	0.085338	0.058394	7563.848633
8359.172539	0.085323	0.058394	7646.100586
8360.197633	1.054951	0.055002	517.981018
8360.198548	1.513539	0.055002	1902.869141
8360.199463	1.499290	0.055002	3274.718994
8360.200368	1.461240	0.055002	4597.141602
8360.201299	1.423066	0.055002	5922.016602
8360.202219	0.980233	0.055002	6823.831055
8360.203122	0.107476	0.055002	6920.881348
8360.204008	0.085195	0.055002	6996.364258
8360.204960	0.085393	0.055002	7077.658691
8360.205861	0.085298	0.055002	7154.512207
8360.206751	0.085309	0.055002	7230.437012
8360.207692	0.085298	0.055002	7310.702148
8360.208592	0.085430	0.055002	7387.588867
8360.209485	0.085254	0.055002	7463.720703
8360.210377	0.085327	0.055002	7539.832520
8360.211313	0.085280	0.055002	7619.654297
8361.225684	1.050370	0.057339	469.515320
8361.226582	1.511239	0.057339	1826.607910
8361.227513	1.501282	0.057339	3224.301270
8361.228438	1.462255	0.057339	4576.886719
8361.229351	1.424832	0.057339	5877.757812
8361.230256	1.050125	0.057339	6828.120605
8361.231202	0.114745	0.057339	6936.669434
8361.232102	0.085232	0.057339	7013.377930
8361.232998	0.085298	0.057339	7089.804687
8361.233883	0.085291	0.057339	7165.286621
8361.234808	0.085393	0.057339	7244.275391
8361.235713	0.085302	0.057339	7321.473145
8361.236607	0.085316	0.057339	7397.745605
8361.237534	0.085345	0.057339	7476.860840
8361.238444	0.085382	0.057339	7554.558594
8361.239345	0.085272	0.057339	7631.388672
8362.266574	1.039248	0.055909	459.347656
8362.267467	1.510159	0.055909	1807.919312
8362.268428	1.500604	0.055909	3250.000000
8362.269333	1.462134	0.055909	4573.230957
8362.270230	1.425385	0.055909	5851.800781
8362.271175	1.017810	0.055909	6813.631348
8362.272096	0.110533	0.055909	6915.432617
8362.273003	0.085155	0.055909	6992.668457
8362.273892	0.085269	0.055909	7068.472168
8362.274835	0.085272	0.055909	7148.883789
8362.275739	0.085272	0.055909	7225.969727
8362.276635	0.085302	0.055909	7302.399902
8362.277524	0.085247	0.055909	7378.184082
8362.278460	0.085378	0.055909	7458.098145
8362.279360	0.085302	0.055909	7534.869629
8362.280252	0.085265	0.055909	7610.925781
8363.293137	1.042416	0.058640	457.620514
8363.294082	1.510620	0.058640	1885.156494
8363.295001	1.500066	0.058640	3263.717041
8363.295901	1.462130	0.058640	4579.634277
8363.296790	1.425399	0.058640	5846.814453
8363.297743	1.018158	0.058640	6817.119141
8363.298643	0.112562	0.058640	6918.425293
8363.299544	0.085137	0.058640	6995.133301
8363.300436	0.085294	0.058640	7071.215820
8363.301393	0.085298	0.058640	7152.845703
8363.302295	0.085206	0.058640	7229.701660
8363.303192	0.085192	0.058640	7306.118652
8363.304135	0.085280	0.058640	7386.537109
8363.305039	0.085309	0.058640	7463.656250
8363.305933	0.085232	0.058640	7539.853516
8363.306819	0.085258	0.058640	7615.391602
8364.332994	1.032459	0.055155	447.054535
8364.333942	1.510056	0.055155	1878.587769
8364.334864	1.500187	0.055155	3261.760010
8364.335772	1.461859	0.055155	4589.127930
8364.336666	1.425150	0.055155	5863.211914
8364.337636	0.983793	0.055155	6817.490723
8364.338537	0.108461	0.055155	6915.213867
8364.339432	0.085170	0.055155	6991.440918
8364.340318	0.085269	0.055155	7066.988770
8364.341247	0.085302	0.055155	7146.233887
8364.342158	0.085309	0.055155	7223.950195
8364.343053	0.085272	0.055155	7300.269043
8364.343987	0.085364	0.055155	7379.999023
8364.344889	0.085386	0.055155	7457.017090
8364.345791	0.085236	0.055155	7533.899414
8364.346679	0.085298	0.055155	7609.644043
8365.363154	1.050033	0.056924	467.264679
8365.364058	1.511309	0.056924	1833.487549
8365.365029	1.499363	0.056924	3289.368652
8365.365939	1.460867	0.056924	4618.757324
8365.366863	1.422964	0.056924	5933.576172
8365.367765	0.982925	0.056924	6820.174316
8365.368717	0.104473	0.056924	6919.632324
8365.369609	0.085133	0.056924	6995.570801
8365.370497	0.085334	0.056924	7071.347656
8365.371428	0.085364	0.056924	7150.821289
8365.372337	0.085239	0.056924	7228.303711
8365.373236	0.085287	0.056924	7304.976562
8365.374150	0.085239	0.056924	7382.885254
8365.375058	0.085298	0.056924	7460.335937
8365.375956	0.085232	0.056924	7536.874023
8365.376845	0.085302	0.056924	7612.707031
8366.398425	1.056310	0.056078	473.226807
8366.399328	1.511147	0.056078	1837.792969
8366.400252	1.501245	0.056078	3224.943359
8366.401181	1.462427	0.056078	4583.538086
8366.402090	1.424443	0.056078	5878.356934
8366.402998	1.042559	0.056078	6825.000000
8366.403924	0.115016	0.056078	6931.504883
8366.404828	0.085192	0.056078	7008.518066
8366.405723	0.085283	0.056078	7084.846680
8366.406610	0.085192	0.056078	7160.411621
8366.407553	0.085334	0.056078	7240.881836
8366.408455	0.085210	0.056078	7317.741211
8366.409346	0.085232	0.056078	7393.682617
8366.410256	0.085269	0.056078	7471.276855
8366.411167	0.085294	0.056078	7548.979980
8366.412076	0.085192	0.056078	7626.418945
8367.431123	1.048854	0.057335	461.495667
8367.432048	1.511777	0.057335	1859.889648
8367.432951	1.501366	0.057335	3215.623047
8367.433899	1.461698	0.057335	4601.312500
8367.434810	1.424154	0.057335	5898.716797
8367.435724	1.026068	0.057335	6836.542969
8367.436608	0.116477	0.057335	6939.508789
8367.437547	0.085203	0.057335	7019.514160
8367.438453	0.085217	0.057335	7096.721191
8367.439352	0.085225	0.057335	7173.337891
8367.440273	0.085228	0.057335	7251.833008
8367.441179	0.085280	0.057335	7329.096191
8367.442079	0.085203	0.057335	7405.778809
8367.442971	0.085159	0.057335	7481.740234
8367.443928	0.085356	0.057335	7563.426270
8367.444831	0.085265	0.057335	7640.420410
8368.463814	1.034744	0.057053	451.148224
8368.464764	1.510239	0.057053	1885.875488
8368.465684	1.499513	0.057053	3265.427246
8368.466619	1.460504	0.057053	4630.998535
8368.467513	1.423447	0.057053	5903.560547
8368.468475	0.961498	0.057053	6828.521484
8368.469389	0.105699	0.057053	6925.130859
8368.470283	0.085133	0.057053	7001.239746
8368.471232	0.085221	0.057053	7082.114258
8368.472131	0.085221	0.057053	7158.728027
8368.473046	0.085232	0.057053	7236.715332
8368.473944	0.085217	0.057053	7313.240234
8368.474882	0.085309	0.057053	7393.259766
8368.475791	0.085170	0.057053	7470.679199
8368.476707	0.085302	0.057053	7548.815430
8368.477606	0.085265	0.057053	7625.468750
8369.502161	1.044631	0.056215	464.860962
8369.503055	1.510272	0.056215	1815.044312
8369.504056	1.498480	0.056215	3315.022949
8369.504972	1.459966	0.056215	4652.351562
8369.505877	1.422733	0.056215	5939.924805
8369.506830	0.943132	0.056215	6838.729980
8369.507730	0.104183	0.056215	6932.495117
8369.508627	0.085162	0.056215	7008.885742
8369.509515	0.085254	0.056215	7084.591309
8369.510450	0.085272	0.056215	7164.320801
8369.511355	0.085345	0.056215	7241.558594
8369.512256	0.085269	0.056215	7318.385742
8369.513142	0.085309	0.056215	7393.969238
8369.514100	0.085338	0.056215	7475.723145
8369.515006	0.085258	0.056215	7552.966309
8369.515907	0.085214	0.056215	7629.743652
8370.530312	1.114944	0.057766	551.897217
8370.531225	1.514052	0.057766	1934.226318
8370.532129	1.499403	0.057766	3289.686768
8370.533022	1.461453	0.057766	4594.764160
8370.533953	1.423476	0.057766	5920.020508
8370.534874	1.000455	0.057766	6841.439941
8370.535773	0.110702	0.057766	6940.960937
8370.536722	0.085159	0.057766	7021.776367
8370.537626	0.085280	0.057766	7098.869141
8370.538531	0.085137	0.057766	7175.917969
8370.539418	0.085265	0.057766	7251.547852
8370.540357	0.085338	0.057766	7331.680176
8370.541252	0.085225	0.057766	7407.956055
8370.542150	0.085236	0.057766	7484.497559
8370.543033	0.085236	0.057766	7559.760742
8370.543963	0.085239	0.057766	7639.033203
8371.569620	1.048271	0.056549	463.335968
8371.570512	1.510510	0.056549	1810.711060
8371.571472	1.500110	0.056549	3250.816406
8371.572373	1.461863	0.056549	4567.955078
8371.573268	1.425245	0.056549	5843.549805
8371.574227	1.018224	0.056549	6820.026367
8371.575138	0.111416	0.056549	6921.526367
8371.576061	0.085192	0.056549	7000.158203
8371.576954	0.085243	0.056549	7076.280273
8371.577900	0.085272	0.056549	7156.947754
8371.578803	0.085210	0.056549	7233.892578
8371.579695	0.085371	0.056549	7310.043457
8371.580607	0.085313	0.056549	7387.848633
8371.581530	0.085287	0.056549	7466.568359
8371.582419	0.085305	0.056549	7542.404785
8371.583306	0.085353	0.056549	7618.112793
8372.595159	1.045778	0.059240	463.279449
8372.596053	1.510115	0.059240	1813.322021
8372.597015	1.499912	0.059240	3256.237549
8372.597928	1.461705	0.059240	4590.774414
8372.598829	1.424484	0.059240	5874.234375
8372.599780	0.985554	0.059240	6811.496582
8372.600697	0.107395	0.059240	6909.978027
8372.601598	0.085126	0.059240	6986.676270
8372.602491	0.085309	0.059240	7062.856934
8372.603418	0.085386	0.059240	7142.009277
8372.604316	0.085305	0.059240	7218.613281
8372.605217	0.085272	0.059240	7295.443359
8372.606104	0.085261	0.059240	7371.070312
8372.607045	0.085313	0.059240	7451.349609
8372.607949	0.085258	0.059240	7528.422363
8372.608841	0.085298	0.059240	7604.507812
8373.639113	1.033392	0.057423	449.525665
8373.640067	1.513330	0.057423	1893.242554
8373.640978	1.499802	0.057423	3259.562500
8373.641891	1.461303	0.057423	4593.731445
8373.642788	1.424158	0.057423	5871.201172
8373.643751	0.991296	0.057423	6825.819336
8373.644658	0.108776	0.057423	6924.479004
8373.645551	0.085155	0.057423	7000.522461
8373.646483	0.085291	0.057423	7080.013184
8373.647393	0.085298	0.057423	7157.634277
8373.648285	0.085254	0.057423	7233.680664
8373.649173	0.085195	0.057423	7309.333984
8373.650111	0.085265	0.057423	7389.312500
8373.651020	0.085331	0.057423	7466.878418
8373.651923	0.085287	0.057423	7543.892578
8373.652821	0.085225	0.057423	7620.424316
8374.660044	1.048499	0.059784	461.339355
8374.661026	1.514535	0.059784	1948.612671
8374.661930	1.498630	0.059784	3303.374512
8374.662825	1.460768	0.059784	4610.761719
8374.663780	1.422733	0.059784	5969.471680
8374.664700	0.955540	0.059784	6848.567871
8374.665593	0.106003	0.059784	6943.229004
8374.666482	0.085151	0.059784	7018.928711
8374.667437	0.085221	0.059784	7100.314941
8374.668347	0.085243	0.059784	7177.886230
8374.669266	0.085228	0.059784	7256.210937
8374.670154	0.085239	0.059784	7331.903320
8374.671118	0.085181	0.059784	7414.017578
8374.672017	0.085236	0.059784	7490.644531
8374.672907	0.085221	0.059784	7566.491211
8374.673854	0.085225	0.059784	7647.198730
8375.708626	1.034260	0.057161	448.868958
8375.709566	1.510997	0.057161	1869.206543
8375.710473	1.500802	0.057161	3230.434082
8375.711375	1.462621	0.057161	4549.718262
8375.712270	1.426058	0.057161	5826.040527
8375.713218	1.058577	0.057161	6829.571289
8375.714115	0.119769	0.057161	6937.004395
8375.715026	0.085210	0.057161	7014.630859
8375.715916	0.085291	0.057161	7090.539551
8375.716864	0.085353	0.057161	7171.454102
8375.717774	0.085280	0.057161	7249.058594
8375.718675	0.085276	0.057161	7325.892090
8375.719610	0.085375	0.057161	7405.717285
8375.720507	0.085375	0.057161	7482.298340
8375.721405	0.085309	0.057161	7558.905762
8375.722297	0.085313	0.057161	7635.004395
8376.724945	1.047195	0.060735	461.812927
8376.725837	1.510184	0.060735	1808.897461
8376.726810	1.499681	0.060735	3268.087402
8376.727733	1.460900	0.060735	4616.498047
8376.728632	1.423993	0.060735	5896.667480
8376.729586	0.976183	0.060735	6827.945801
8376.730478	0.107640	0.060735	6923.960937
8376.731377	0.085210	0.060735	7000.564453
8376.732273	0.085313	0.060735	7077.004395
8376.733217	0.085375	0.060735	7157.598145
8376.734123	0.085367	0.060735	7234.940918
8376.735024	0.085356	0.060735	7311.847168
8376.735948	0.085386	0.060735	7390.743652
8376.736860	0.085400	0.060735	7468.628906
8376.737768	0.085272	0.060735	7546.056152
8376.738660	0.085291	0.060735	7622.135254
8377.777152	1.093088	0.056533	531.240967
8377.778061	1.513030	0.056533	1906.585083
8377.778979	1.499096	0.056533	3282.754883
8377.779884	1.460552	0.056533	4604.554199
8377.780848	1.421686	0.056533	5975.059570
8377.781761	0.948259	0.056533	6840.820312
8377.782651	0.104967	0.056533	6934.241211
8377.783590	0.085269	0.056533	7014.308594
8377.784499	0.085276	0.056533	7091.824219
8377.785420	0.085302	0.056533	7170.386719
8377.786313	0.085309	0.056533	7246.567383
8377.787258	0.085316	0.056533	7327.191406
8377.788163	0.085261	0.056533	7404.353027
8377.789073	0.085331	0.056533	7482.003906
8377.789979	0.085294	0.056533	7559.280273
8377.790924	0.085272	0.056533	7639.862305
8378.792911	1.048015	0.059051	459.030609
8378.793818	1.511279	0.059051	1829.760864
8378.794729	1.501655	0.059051	3197.768799
8378.795634	1.462903	0.059051	4521.695801
8378.796587	1.424641	0.059051	5879.378906
8378.797507	1.028163	0.059051	6825.288574
8378.798391	0.116763	0.059051	6928.506836
8378.799328	0.085316	0.059051	7008.448242
8378.800239	0.085360	0.059051	7086.211426
8378.801140	0.085291	0.059051	7163.058105
8378.802025	0.085316	0.059051	7238.562988
8378.802972	0.085408	0.059051	7319.444336
8378.803879	0.085334	0.059051	7396.842773
8378.804773	0.085283	0.059051	7473.085937
8378.805688	0.085353	0.059051	7551.183594
8378.806607	0.085422	0.059051	7629.686523
8379.846606	1.048444	0.057282	463.412109
8379.847508	1.510657	0.057282	1826.024414
8379.848401	1.502329	0.057282	3167.604492
8379.849369	1.462061	0.057282	4582.878906
8379.850278	1.424546	0.057282	5877.791016
8379.851191	1.042797	0.057282	6829.864258
8379.852074	0.119366	0.057282	6935.264648
8379.853019	0.085269	0.057282	7015.843262
8379.853919	0.085269	0.057282	7092.584961
8379.854819	0.085313	0.057282	7169.366211
8379.855754	0.085309	0.057282	7249.129883
8379.856660	0.085353	0.057282	7326.459473
8379.857558	0.085294	0.057282	7403.053711
8379.858455	0.085320	0.057282	7479.585449
8379.859409	0.085287	0.057282	7560.949219
8379.860307	0.085313	0.057282	7637.560059
8380.857802	1.038442	0.061262	454.837769
8380.858695	1.509752	0.061262	1803.046387
8380.859659	1.500344	0.061262	3249.378418
8380.860577	1.461720	0.061262	4591.237305
8380.861473	1.424681	0.061262	5867.751953
8380.862425	1.006315	0.061262	6825.763672
8380.863321	0.111742	0.061262	6925.884277
8380.864215	0.085192	0.061262	7002.045410
8380.865105	0.085331	0.061262	7077.989746
8380.866040	0.085389	0.061262	7157.828613
8380.866944	0.085313	0.061262	7234.951172
8380.867854	0.085367	0.061262	7312.635742
8380.868747	0.085331	0.061262	7388.835937
8380.869698	0.085389	0.061262	7470.041016
8380.870614	0.085272	0.061262	7548.150391
8380.871504	0.085291	0.061262	7624.059082
8381.916105	1.047935	0.056408	461.091187
8381.917087	1.513923	0.056408	1947.763794
8381.917983	1.499096	0.056408	3290.953369
8381.918878	1.461486	0.056408	4598.982910
8381.919823	1.422891	0.056408	5943.614746
8381.920744	0.973323	0.056408	6840.044922
8381.921664	0.104216	0.056408	6935.923828
8381.922562	0.085203	0.056408	7012.436035
8381.923511	0.085294	0.056408	7093.380371
8381.924423	0.085316	0.056408	7171.188477
8381.925314	0.085280	0.056408	7247.172363
8381.926222	0.085291	0.056408	7324.616211
8381.927160	0.085291	0.056408	7404.618652
8381.928055	0.085225	0.056408	7480.894531
8381.928946	0.085298	0.056408	7556.895020
8381.929870	0.085349	0.056408	7635.757812
8382.925300	1.052388	0.058523	504.093719
8382.926219	1.513055	0.058523	1894.591675
8382.927127	1.499323	0.058523	3255.976562
8382.928031	1.461412	0.058523	4577.093262
8382.928970	1.423118	0.058523	5913.400879
8382.929888	0.993321	0.058523	6825.270020
8382.930785	0.109585	0.058523	6923.567871
8382.931673	0.085144	0.058523	6999.175781
8382.932613	0.085338	0.058523	7079.393555
8382.933513	0.085155	0.058523	7156.033203
8382.934402	0.085247	0.058523	7231.817383
8382.935322	0.085228	0.058523	7310.227539
8382.936235	0.085294	0.058523	7388.101074
8382.937136	0.085170	0.058523	7464.838867
8382.938030	0.085221	0.058523	7541.026367
8382.938957	0.085287	0.058523	7620.087402
8383.983574	1.052845	0.056759	469.569092
8383.984473	1.511114	0.056759	1828.061035
8383.985420	1.500417	0.056759	3248.956543
8383.986341	1.461211	0.056759	4594.731445
8383.987253	1.424040	0.056759	5893.456055
8383.988159	1.027394	0.056759	6824.274902
8383.989126	0.104286	0.056759	6925.119141
8383.990029	0.085148	0.056759	7002.007324
8383.990921	0.085247	0.056759	7078.047363
8383.991837	0.085250	0.056759	7156.136719
8383.992761	0.085345	0.056759	7234.996094
8383.993663	0.085232	0.056759	7311.875488
8383.994558	0.085276	0.056759	7388.197266
8383.995485	0.085302	0.056759	7467.271973
8383.996385	0.085236	0.056759	7543.983887
8383.997288	0.085210	0.056759	7620.928711
8384.992771	1.069658	0.057190	533.759460
8384.993691	1.514092	0.057190	1926.723877
8384.994610	1.498048	0.057190	3303.430176
8384.995511	1.460402	0.057190	4619.251953
8384.996451	1.421913	0.057190	5955.850098
8384.997383	0.922983	0.057190	6816.070312
8384.998300	0.100441	0.057190	6908.174316
8384.999187	0.085173	0.057190	6983.723145
8385.000146	0.085250	0.057190	7065.478027
8385.001048	0.085236	0.057190	7142.360352
8385.001933	0.085239	0.057190	7217.796875
8385.002874	0.085298	0.057190	7298.062012
8385.003784	0.085258	0.057190	7375.646484
8385.004704	0.085287	0.057190	7454.110352
8385.005598	0.085272	0.057190	7530.343750
8385.006555	0.085272	0.057190	7611.949219
8386.051012	1.031400	0.056489	446.596283
8386.051975	1.511642	0.056489	1902.307373
8386.052883	1.499850	0.056489	3264.171143
8386.053784	1.461925	0.056489	4581.365723
8386.054678	1.425084	0.056489	5855.391113
8386.055634	1.011647	0.056489	6822.525391
8386.056534	0.112218	0.056489	6923.521484
8386.057429	0.085181	0.056489	6999.758301
8386.058358	0.085334	0.056489	7079.034180
8386.059263	0.085353	0.056489	7156.278320
8386.060175	0.085236	0.056489	7234.013184
8386.061074	0.085206	0.056489	7310.613770
8386.062007	0.085276	0.056489	7390.176270
8386.062911	0.085265	0.056489	7467.255859
8386.063814	0.085294	0.056489	7544.276367
8386.064701	0.085272	0.056489	7619.912598
8387.059666	1.053307	0.056815	469.774841
8387.060567	1.511125	0.056815	1831.298828
8387.061478	1.500872	0.056815	3198.592773
8387.062440	1.461303	0.056815	4604.365723
8387.063352	1.423843	0.056815	5902.910156
8387.064258	1.026830	0.056815	6833.217773
8387.065203	0.112625	0.056815	6939.647949
8387.066101	0.085188	0.056815	7016.146973
8387.067003	0.085232	0.056815	7093.026367
8387.067892	0.085236	0.056815	7168.800781
8387.068817	0.085386	0.056815	7247.782715
8387.069717	0.085291	0.056815	7324.543945
8387.070614	0.085272	0.056815	7401.033203
8387.071525	0.085243	0.056815	7478.689453
8387.072450	0.085331	0.056815	7557.620605
8387.073354	0.085217	0.056815	7634.657227
8388.119011	1.066501	0.055486	484.191681
8388.119934	1.512257	0.055486	1880.005005
8388.120843	1.500201	0.055486	3243.687988
8388.121740	1.462130	0.055486	4555.218750
8388.122691	1.423879	0.055486	5909.328125
8388.123603	1.017590	0.055486	6837.370605
8388.124485	0.115225	0.055486	6938.998535
8388.125426	0.085173	0.055486	7019.146484
8388.126337	0.085206	0.055486	7096.769531
8388.127240	0.085280	0.055486	7173.776855
8388.128131	0.085144	0.055486	7249.640137
8388.129094	0.085316	0.055486	7331.799805
8388.130002	0.085269	0.055486	7409.223633
8388.130903	0.085294	0.055486	7486.073730
8388.131794	0.085323	0.055486	7562.097168
8388.132734	0.085283	0.055486	7642.263184
8389.129180	1.058152	0.057226	472.993866
8389.130088	1.511353	0.057226	1845.302002
8389.130985	1.501223	0.057226	3191.899170
8389.131945	1.461775	0.057226	4595.203125
8389.132855	1.424169	0.057226	5891.196777
8389.133762	1.038567	0.057226	6833.176758
8389.134684	0.116942	0.057226	6940.997559
8389.135607	0.085210	0.057226	7019.646484
8389.136512	0.085261	0.057226	7096.808105
8389.137412	0.085287	0.057226	7173.566406
8389.138336	0.085294	0.057226	7252.378418
8389.139245	0.085316	0.057226	7329.930664
8389.140148	0.085247	0.057226	7406.908203
8389.141039	0.085232	0.057226	7482.849609
8389.141983	0.085353	0.057226	7563.422852
8389.142898	0.085276	0.057226	7641.450195
8390.186456	1.057822	0.053935	477.077820
8390.187354	1.511254	0.053935	1834.183594
8390.188307	1.499751	0.053935	3263.446289
8390.189227	1.461119	0.053935	4607.675781
8390.190134	1.423964	0.053935	5899.210937
8390.191040	1.013111	0.053935	6817.089844
8390.191985	0.107047	0.053935	6918.249512
8390.192889	0.085155	0.053935	6995.229492
8390.193785	0.085239	0.053935	7071.604004
8390.194716	0.085313	0.053935	7151.029785
8390.195618	0.085342	0.053935	7228.008301
8390.196513	0.085265	0.053935	7304.320312
8390.197400	0.085210	0.053935	7379.901367
8390.198342	0.085287	0.053935	7460.241699
8390.199246	0.085221	0.053935	7537.281250
8390.200146	0.085228	0.053935	7613.986816
8391.197690	1.088767	0.056622	528.052002
8391.198591	1.513026	0.056622	1891.288574
8391.199534	1.498612	0.056622	3304.479736
8391.200453	1.459607	0.056622	4645.858398
8391.201378	1.422173	0.056622	5961.368164
8391.202279	0.956664	0.056622	6823.322266
8391.203232	0.100261	0.056622	6918.871094
8391.204157	0.085118	0.056622	6997.605469
8391.205046	0.085261	0.056622	7073.402832
8391.205985	0.085287	0.056622	7153.487305
8391.206898	0.085258	0.056622	7231.327637
8391.207818	0.085221	0.056622	7309.730957
8391.208709	0.085283	0.056622	7385.718262
8391.209654	0.085269	0.056622	7466.296875
8391.210556	0.085170	0.056622	7543.120117
8391.211480	0.085254	0.056622	7621.894531
8392.253897	1.032356	0.053834	450.107178
8392.254849	1.513191	0.053834	1890.664917
8392.255769	1.499465	0.053834	3270.172852
8392.256681	1.461130	0.053834	4602.723633
8392.257574	1.423931	0.053834	5874.293945
8392.258536	0.981288	0.053834	6818.292969
8392.259448	0.107135	0.053834	6916.000000
8392.260340	0.085148	0.053834	6991.951660
8392.261285	0.085316	0.053834	7072.575195
8392.262187	0.085269	0.053834	7149.487305
8392.263085	0.085265	0.053834	7226.055176
8392.263976	0.085228	0.053834	7301.993652
8392.264919	0.085217	0.053834	7382.353516
8392.265817	0.085206	0.053834	7458.868652
8392.266716	0.085313	0.053834	7535.564453
8392.267608	0.085276	0.053834	7611.630371
8393.267147	1.032103	0.056287	451.029144
8393.268044	1.509763	0.056287	1805.286743
8393.268997	1.500450	0.056287	3235.216064
8393.269917	1.461508	0.056287	4579.802734
8393.270846	1.423575	0.056287	5902.304199
8393.271755	0.985906	0.056287	6798.492676
8393.272707	0.106025	0.056287	6899.428711
8393.273606	0.085056	0.056287	6975.894043
8393.274498	0.085247	0.056287	7051.934082
8393.275427	0.085309	0.056287	7131.186035
8393.276330	0.085236	0.056287	7208.153809
8393.277247	0.085214	0.056287	7286.294922
8393.278139	0.085280	0.056287	7362.364258
8393.279091	0.085236	0.056287	7443.508789
8393.279990	0.085206	0.056287	7520.109375
8393.280876	0.085188	0.056287	7595.585937
8394.319819	1.041251	0.054535	456.068024
8394.320712	1.509924	0.054535	1804.430420
8394.321684	1.499623	0.054535	3262.063965
8394.322598	1.461387	0.054535	4597.771484
8394.323501	1.423993	0.054535	5883.637207
8394.324467	0.977289	0.054535	6827.698242
8394.325369	0.107292	0.054535	6924.476074
8394.326265	0.085137	0.054535	7000.758789
8394.327150	0.085280	0.054535	7076.230957
8394.328105	0.085367	0.054535	7157.756836
8394.329002	0.085294	0.054535	7234.265625
8394.329899	0.085269	0.054535	7310.751465
8394.330820	0.085221	0.054535	7389.239746
8394.331739	0.085291	0.054535	7467.621582
8394.332654	0.085184	0.054535	7545.565430
8394.333547	0.085291	0.054535	7621.729980
8395.335646	1.060305	0.057089	480.318268
8395.336542	1.511180	0.057089	1834.335815
8395.337477	1.500813	0.057089	3237.595947
8395.338388	1.462244	0.057089	4569.700195
8395.339289	1.425011	0.057089	5853.634766
8395.340180	1.079769	0.057089	6815.708984
8395.341127	0.115778	0.057089	6925.350586
8395.342025	0.085195	0.057089	7001.855957
8395.342929	0.085214	0.057089	7078.889160
8395.343816	0.085243	0.057089	7154.499512
8395.344758	0.085283	0.057089	7234.836426
8395.345659	0.085298	0.057089	7311.689941
8395.346550	0.085320	0.057089	7387.709961
8395.347496	0.085338	0.057089	7468.439941
8395.348398	0.085353	0.057089	7545.428223
8395.349290	0.085265	0.057089	7621.484375
8396.386266	1.060701	0.054398	482.618805
8396.387167	1.511415	0.054398	1844.403442
8396.388131	1.499334	0.054398	3289.760986
8396.389049	1.460511	0.054398	4630.510742
8396.389951	1.423411	0.054398	5914.427246
8396.390850	1.004502	0.054398	6817.474609
8396.391785	0.107827	0.054398	6918.292969
8396.392687	0.085056	0.054398	6995.013672
8396.393574	0.085155	0.054398	7070.546387
8396.394504	0.085170	0.054398	7149.754395
8396.395415	0.085228	0.054398	7227.397461
8396.396323	0.085217	0.054398	7304.774902
8396.397215	0.085206	0.054398	7380.778809
8396.398167	0.085323	0.054398	7462.006836
8396.399072	0.085261	0.054398	7539.168457
8396.399968	0.085265	0.054398	7615.565918
8397.405663	1.062894	0.057629	482.554047
8397.406559	1.511514	0.057629	1836.870239
8397.407519	1.499832	0.057629	3276.708496
8397.408431	1.461189	0.057629	4609.312988
8397.409333	1.424392	0.057629	5894.114258
8397.410232	1.029697	0.057629	6819.812012
8397.411171	0.109113	0.057629	6922.268555
8397.412078	0.085151	0.057629	6999.500977
8397.412975	0.085294	0.057629	7076.009766
8397.413897	0.085287	0.057629	7154.644043
8397.414807	0.085360	0.057629	7232.321777
8397.415721	0.085214	0.057629	7310.207031
8397.416614	0.085269	0.057629	7386.352051
8397.417553	0.085360	0.057629	7466.505371
8397.418454	0.085323	0.057629	7543.381836
8397.419351	0.085280	0.057629	7619.877441
8398.451670	1.055823	0.053399	467.729462
8398.452577	1.511360	0.053399	1838.532837
8398.453473	1.501351	0.053399	3183.743652
8398.454442	1.461324	0.053399	4599.767090
8398.455358	1.423773	0.053399	5903.943359
8398.456275	1.012844	0.053399	6832.721680
8398.457195	0.112914	0.053399	6936.602539
8398.458100	0.085206	0.053399	7013.714355
8398.458997	0.085239	0.053399	7090.173828
8398.459881	0.085265	0.053399	7165.547852
8398.460814	0.085320	0.053399	7245.151367
8398.461720	0.085323	0.053399	7322.454590
8398.462621	0.085272	0.053399	7399.284668
8398.463516	0.085261	0.053399	7475.593262
8398.464457	0.085404	0.053399	7555.958496
8398.465361	0.085272	0.053399	7633.044434
8399.475663	1.042965	0.057617	462.033508
8399.476559	1.510181	0.057617	1815.155518
8399.477530	1.499323	0.057617	3270.997559
8399.478441	1.461013	0.057617	4601.980469
8399.479343	1.423912	0.057617	5886.349609
8399.480270	0.997632	0.057617	6811.154297
8399.481195	0.109197	0.057617	6912.161133
8399.482096	0.085104	0.057617	6988.839844
8399.482993	0.085173	0.057617	7065.240234
8399.483931	0.085276	0.057617	7145.229004
8399.484834	0.085305	0.057617	7222.259766
8399.485734	0.085151	0.057617	7298.895996
8399.486619	0.085133	0.057617	7374.238770
8399.487567	0.085294	0.057617	7455.097656
8399.488475	0.085210	0.057617	7532.468262
8399.489367	0.085236	0.057617	7608.498535
8400.517071	1.047089	0.055043	459.671906
8400.518033	1.511862	0.055043	1914.082642
8400.518940	1.499403	0.055043	3274.041260
8400.519871	1.460424	0.055043	4633.695801
8400.520765	1.423411	0.055043	5906.225098
8400.521738	0.946967	0.055043	6827.623535
8400.522625	0.104626	0.055043	6920.427246
8400.523516	0.085199	0.055043	6996.339355
8400.524443	0.085331	0.055043	7075.440918
8400.525369	0.085228	0.055043	7154.362305
8400.526272	0.085356	0.055043	7231.438965
8400.527163	0.085287	0.055043	7307.429687
8400.528109	0.085298	0.055043	7388.121582
8400.529024	0.085331	0.055043	7466.199219
8400.529941	0.085345	0.055043	7544.460937
8400.530829	0.085305	0.055043	7620.211914
